File: examples/data_example_10_b.txt
WORKSHOP 3 EXPORTED DATA: [C:\Documents and Settings\Administrator\Pulpit\Rozciaganie\w7_1.W01 - 1]
*************************************************************************************************
Source of data: ScriptPl
WS3 File Version: 1,05
Number of bytes in subfile: 6647
Total number of data points: 307
Test date: 30-01-2018
Test time: 17:45:29
Player Step: 1
Step Capture No: 1
Actuator: 1
*************************************************************************************************
Actuator: 1  Channel:0	 Actuator: 1  Channel:1	 Actuator: 1  Channel:2	 Actuator: 1  Channel:3	 Actuator: 1  Channel:4
Load (kN)	 Stroke (mm)	 Extension (mm)	 Command (%)	 Time (s)
1,022	-60,318	0,007	-46,350	0
2,008	-60,278	0,038	-46,322	2
3,196	-60,240	0,061	-46,289	4
4,537	-60,203	0,092	-46,261	6
5,977	-60,166	0,120	-46,229	8
7,663	-60,129	0,153	-46,197	10
9,385	-60,090	0,189	-46,167	12
11,571	-60,053	0,220	-46,137	14
13,488	-60,020	0,250	-46,106	16
15,513	-59,981	0,279	-46,074	18
17,678	-59,946	0,307	-46,046	20
19,738	-59,908	0,338	-46,011	22
21,791	-59,868	0,370	-45,986	24
23,833	-59,832	0,403	-45,952	26
25,737	-59,795	0,440	-45,922	28
27,681	-59,758	0,467	-45,891	30
29,587	-59,721	0,500	-45,860	32
31,378	-59,686	0,532	-45,831	34
33,256	-59,647	0,564	-45,798	36
35,001	-59,606	0,596	-45,769	38
36,638	-59,573	0,632	-45,744	40
38,375	-59,531	0,672	-45,710	42
39,930	-59,494	0,708	-45,680	44
41,437	-59,458	0,745	-45,647	46
42,964	-59,420	0,785	-45,618	48
44,251	-59,385	0,827	-45,584	50
45,630	-59,348	0,869	-45,553	52
46,866	-59,305	0,912	-45,520	54
48,059	-59,265	0,954	-45,488	56
49,127	-59,228	0,991	-45,456	58
50,117	-59,192	1,032	-45,424	60
51,055	-59,150	1,082	-45,397	62
51,988	-59,113	1,130	-45,367	64
52,793	-59,070	1,174	-45,335	66
53,595	-59,030	1,213	-45,310	68
54,176	-58,994	1,252	-45,274	70
54,795	-58,953	1,292	-45,247	72
55,346	-58,916	1,330	-45,213	74
55,988	-58,874	1,368	-45,186	76
56,352	-58,841	1,407	-45,156	78
56,794	-58,795	1,444	-45,121	80
57,251	-58,759	1,482	-45,096	82
57,566	-58,719	1,514	-45,064	84
57,883	-58,680	1,545	-45,034	86
58,207	-58,638	1,582	-45,003	88
58,571	-58,599	1,618	-44,969	90
58,822	-58,559	1,657	-44,938	92
59,085	-58,519	1,692	-44,908	94
59,386	-58,478	1,729	-44,874	96
59,478	-58,439	1,770	-44,845	98
59,744	-58,402	1,814	-44,816	100
59,931	-58,362	1,859	-44,786	102
60,123	-58,323	1,905	-44,749	104
60,278	-58,278	1,952	-44,728	106
60,416	-58,242	1,989	-44,692	108
60,648	-58,202	2,026	-44,661	110
60,712	-58,165	2,063	-44,640	112
60,856	-58,122	2,100	-44,595	114
61,010	-58,087	2,137	-44,571	116
61,126	-58,041	2,176	-44,541	118
61,216	-58,003	2,213	-44,508	120
61,361	-57,960	2,253	-44,475	122
61,422	-57,925	2,292	-44,442	124
61,552	-57,883	2,330	-44,415	126
61,680	-57,847	2,369	-44,386	128
61,698	-57,799	2,410	-44,352	130
61,762	-57,767	2,446	-44,324	132
61,858	-57,725	2,480	-44,295	134
61,958	-57,684	2,518	-44,258	136
61,999	-57,646	2,555	-44,234	138
62,049	-57,606	2,593	-44,201	140
62,109	-57,560	2,630	-44,169	142
62,175	-57,527	2,667	-44,138	144
62,222	-57,485	2,705	-44,108	146
62,265	-57,448	2,743	-44,076	148
62,308	-57,407	2,779	-44,048	150
62,340	-57,366	2,818	-44,017	152
62,377	-57,322	2,992	-43,986	154
62,404	-57,286	3,402	-43,955	156
62,430	-57,241	3,444	-43,923	158
62,441	-57,204	3,484	-43,896	160
62,477	-57,161	3,525	-43,862	162
62,419	-57,123	2,337	-43,835	164
62,486	-57,084	1,187	-43,803	166
62,517	-57,042	1,184	-43,773	168
62,515	-56,999	1,167	-43,743	170
62,507	-56,966	1,166	-43,714	172
62,533	-56,919	1,166	-43,682	174
62,429	-56,876	1,166	-43,651	176
62,443	-56,844	1,166	-43,618	178
62,461	-56,800	1,166	-43,587	180
62,391	-56,758	1,166	-43,554	182
62,385	-56,722	1,166	-43,522	184
62,343	-56,686	1,167	-43,493	186
62,400	-56,644	1,166	-43,460	188
62,235	-56,595	1,166	-43,430	190
62,244	-56,560	1,166	-43,401	192
62,119	-56,518	1,167	-43,373	194
62,173	-56,485	1,167	-43,338	196
62,191	-56,445	1,167	-43,309	198
61,994	-56,403	1,166	-43,280	200
62,048	-56,365	1,167	-43,247	202
61,943	-56,316	1,166	-43,220	204
61,911	-56,283	1,166	-43,186	206
61,799	-56,235	1,166	-43,157	208
61,792	-56,199	1,167	-43,127	210
61,658	-56,158	1,166	-43,095	212
61,677	-56,120	1,167	-43,066	214
61,522	-56,081	1,167	-43,035	216
61,550	-56,035	1,167	-43,004	218
61,430	-55,995	1,166	-42,972	220
61,301	-55,956	1,167	-42,944	222
61,324	-55,919	1,167	-42,910	224
61,076	-55,877	1,166	-42,882	226
61,155	-55,841	1,167	-42,850	228
61,055	-55,795	1,166	-42,816	230
60,883	-55,757	1,167	-42,794	232
60,822	-55,717	1,166	-42,756	234
60,686	-55,676	1,167	-42,728	236
60,533	-55,633	1,167	-42,697	238
60,500	-55,594	1,166	-42,662	240
60,320	-55,559	1,167	-42,634	242
60,311	-55,514	1,166	-42,596	244
60,024	-55,474	1,167	-42,572	246
60,020	-55,432	1,166	-42,542	248
59,794	-55,398	1,166	-42,513	250
59,805	-55,355	1,166	-42,479	252
59,492	-55,317	1,167	-42,454	254
59,492	-55,275	1,166	-42,417	256
59,241	-55,235	1,167	-42,388	258
59,118	-55,194	1,166	-42,356	260
58,924	-55,150	1,167	-42,325	262
58,736	-55,111	1,167	-42,294	264
58,580	-55,072	1,167	-42,267	266
58,324	-55,034	1,167	-42,231	268
58,248	-54,994	1,167	-42,200	270
58,054	-54,950	1,167	-42,173	272
57,850	-54,917	1,167	-42,137	274
57,563	-54,872	1,167	-42,110	276
57,509	-54,831	1,167	-42,080	278
57,204	-54,794	1,167	-42,047	280
56,943	-54,751	1,167	-42,019	282
56,657	-54,715	1,167	-41,988	284
56,595	-54,673	1,166	-41,959	286
56,253	-54,634	1,167	-41,926	288
56,021	-54,593	1,167	-41,897	290
55,740	-54,553	1,167	-41,865	292
55,487	-54,514	1,167	-41,839	294
55,114	-54,467	1,167	-41,805	296
54,842	-54,429	1,167	-41,773	298
54,487	-54,391	1,167	-41,746	300
-0,001	-54,287	1,171	-41,714	302
-0,003	-54,246	1,171	-41,683	304
0,002	-54,208	1,170	-41,652	306