File: examples/data_example.txt
WORKSHOP 3 EXPORTED DATA: [C:\wyniki\2012_03_26\Kopia 26_03.W01 - 1]
*************************************************************************************************
Source of data: ScriptPl
WS3 File Version: 1,05
Number of bytes in subfile: 89187
Total number of data points: 4434
Test date: 26-03-2012
Test time: 15:38:44
Player Step: 1
Step Capture No: 1
Actuator: 1
*************************************************************************************************
Actuator: 1  Channel:0	 Actuator: 1  Channel:1	 Actuator: 1  Channel:2	 Actuator: 1  Channel:3	 Actuator: 1  Channel:4
Load (kN)	 Stroke (mm)	 Extension (mm)	 Command (%)	 Time (s)
-0,006	 -62,865	 -0,113	 -48,310	 0,000
-0,006	 -62,690	 -0,112	 -48,166	 1,900
-0,006	 -62,498	 -0,112	 -48,022	 3,800
-0,006	 -62,307	 -0,112	 -47,874	 5,700
-0,006	 -62,118	 -0,112	 -47,728	 7,600
-0,006	 -61,927	 -0,112	 -47,586	 9,500
-0,006	 -61,740	 -0,113	 -47,435	 11,400
-0,006	 -61,547	 -0,113	 -47,288	 13,300
-0,006	 -61,359	 -0,112	 -47,142	 15,200
-0,006	 -61,175	 -0,113	 -47,001	 17,100
-0,006	 -60,981	 -0,113	 -46,854	 19,000
-0,005	 -60,791	 -0,113	 -46,705	 20,900
-0,006	 -60,604	 -0,113	 -46,563	 22,800
-0,006	 -60,414	 -0,112	 -46,409	 24,700
-0,006	 -60,220	 -0,112	 -46,267	 26,600
-0,006	 -60,034	 -0,113	 -46,120	 28,500
-0,006	 -59,841	 -0,112	 -45,974	 30,400
-0,006	 -59,651	 -0,113	 -45,831	 32,300
-0,006	 -59,463	 -0,113	 -45,684	 34,200
-0,006	 -59,274	 -0,113	 -45,543	 36,100
-0,006	 -59,084	 -0,113	 -45,386	 38,000
-0,006	 -58,893	 -0,113	 -45,244	 39,900
-0,006	 -58,702	 -0,113	 -45,101	 41,800
-0,006	 -58,520	 -0,113	 -44,956	 43,700
-0,006	 -58,322	 -0,112	 -44,806	 45,600
-0,005	 -58,132	 -0,113	 -44,664	 47,500
-0,003	 -57,940	 -0,113	 -44,515	 49,400
0,011	 -57,753	 -0,112	 -44,371	 51,300
0,319	 -57,564	 -0,113	 -44,225	 53,200
0,769	 -57,371	 -0,112	 -44,079	 55,100
0,891	 -57,184	 -0,113	 -43,935	 57,000
0,966	 -56,996	 -0,113	 -43,787	 58,900
1,020	 -56,806	 -0,113	 -43,641	 60,800
1,061	 -56,616	 -0,113	 -43,487	 62,700
1,100	 -56,429	 -0,113	 -43,344	 64,600
1,131	 -56,234	 -0,113	 -43,199	 66,500
1,159	 -56,046	 -0,113	 -43,056	 68,400
1,186	 -55,854	 -0,112	 -42,910	 70,300
1,211	 -55,663	 -0,113	 -42,766	 72,200
1,232	 -55,477	 -0,113	 -42,623	 74,100
1,252	 -55,290	 -0,113	 -42,470	 76,000
1,269	 -55,098	 -0,112	 -42,327	 77,900
1,287	 -54,906	 -0,113	 -42,177	 79,800
1,299	 -54,715	 -0,113	 -42,033	 81,700
1,319	 -54,524	 -0,113	 -41,888	 83,600
1,335	 -54,340	 -0,112	 -41,744	 85,500
1,347	 -54,145	 -0,112	 -41,593	 87,400
1,359	 -53,953	 -0,113	 -41,448	 89,300
1,372	 -53,768	 -0,112	 -41,302	 91,200
1,383	 -53,573	 -0,112	 -41,157	 93,100
1,392	 -53,386	 -0,113	 -41,013	 95,000
1,399	 -53,195	 -0,112	 -40,865	 96,900
1,404	 -53,005	 -0,113	 -40,719	 98,800
1,406	 -52,815	 -0,112	 -40,570	 100,700
1,404	 -52,625	 -0,112	 -40,431	 102,600
1,390	 -52,427	 -0,113	 -40,282	 104,500
1,369	 -52,247	 -0,113	 -40,132	 106,400
1,335	 -52,058	 -0,112	 -39,987	 108,300
1,296	 -51,866	 -0,112	 -39,845	 110,200
1,261	 -51,671	 -0,112	 -39,702	 112,100
1,234	 -51,485	 -0,112	 -39,545	 114,000
1,228	 -51,293	 -0,113	 -39,397	 115,900
1,225	 -51,103	 -0,113	 -39,258	 117,800
1,230	 -50,915	 -0,112	 -39,111	 119,700
1,237	 -50,726	 -0,112	 -38,970	 121,600
1,246	 -50,531	 -0,112	 -38,817	 123,500
1,257	 -50,344	 -0,113	 -38,672	 125,400
1,266	 -50,155	 -0,112	 -38,526	 127,300
1,276	 -49,965	 -0,112	 -38,380	 129,200
1,285	 -49,775	 -0,113	 -38,234	 131,100
1,293	 -49,585	 -0,113	 -38,089	 133,000
1,303	 -49,396	 -0,113	 -37,946	 134,900
1,309	 -49,208	 -0,113	 -37,800	 136,800
1,317	 -49,014	 -0,113	 -37,649	 138,700
1,324	 -48,828	 -0,113	 -37,504	 140,600
1,330	 -48,636	 -0,113	 -37,360	 142,500
1,336	 -48,448	 -0,113	 -37,216	 144,400
1,340	 -48,259	 -0,113	 -37,069	 146,300
1,344	 -48,068	 -0,112	 -36,920	 148,200
1,347	 -47,878	 -0,113	 -36,776	 150,100
1,347	 -47,690	 -0,113	 -36,628	 152,000
1,345	 -47,495	 -0,113	 -36,483	 153,900
1,343	 -47,305	 -0,113	 -36,337	 155,800
1,335	 -47,115	 -0,113	 -36,188	 157,700
1,325	 -46,925	 -0,113	 -36,046	 159,600
1,311	 -46,735	 -0,113	 -35,902	 161,500
1,288	 -46,545	 -0,112	 -35,758	 163,400
1,264	 -46,357	 -0,113	 -35,605	 165,300
1,236	 -46,166	 -0,113	 -35,460	 167,200
1,211	 -45,971	 -0,112	 -35,316	 169,100
1,192	 -45,785	 -0,112	 -35,172	 171,000
1,178	 -45,594	 -0,113	 -35,022	 172,900
1,170	 -45,404	 -0,112	 -34,876	 174,800
1,167	 -45,216	 -0,112	 -34,730	 176,700
1,165	 -45,023	 -0,112	 -34,586	 178,600
1,164	 -44,838	 -0,112	 -34,442	 180,500
1,162	 -44,644	 -0,113	 -34,293	 182,400
1,162	 -44,455	 -0,113	 -34,148	 184,300
1,164	 -44,264	 -0,112	 -34,002	 186,200
1,162	 -44,071	 -0,113	 -33,858	 188,100
1,162	 -43,886	 -0,113	 -33,705	 190,000
1,162	 -43,696	 -0,113	 -33,561	 191,900
1,162	 -43,505	 -0,113	 -33,416	 193,800
1,161	 -43,315	 -0,112	 -33,271	 195,700
1,159	 -43,125	 -0,113	 -33,129	 197,600
1,157	 -42,935	 -0,113	 -32,978	 199,500
1,153	 -42,743	 -0,112	 -32,834	 201,400
1,149	 -42,555	 -0,112	 -32,687	 203,300
1,143	 -42,363	 -0,112	 -32,541	 205,200
1,137	 -42,177	 -0,113	 -32,394	 207,100
1,129	 -41,991	 -0,113	 -32,250	 209,000
1,120	 -41,797	 -0,113	 -32,105	 210,900
1,113	 -41,607	 -0,113	 -31,962	 212,800
1,105	 -41,416	 -0,112	 -31,812	 214,700
1,098	 -41,224	 -0,113	 -31,663	 216,600
1,092	 -41,032	 -0,113	 -31,517	 218,500
1,087	 -40,846	 -0,113	 -31,374	 220,400
1,083	 -40,654	 -0,113	 -31,231	 222,300
1,078	 -40,461	 -0,113	 -31,080	 224,200
1,075	 -40,272	 -0,113	 -30,937	 226,100
1,069	 -40,085	 -0,112	 -30,788	 228,000
1,065	 -39,895	 -0,113	 -30,644	 229,900
1,060	 -39,701	 -0,113	 -30,497	 231,800
1,056	 -39,513	 -0,112	 -30,346	 233,700
1,050	 -39,322	 -0,113	 -30,204	 235,600
1,043	 -39,131	 -0,112	 -30,059	 237,500
1,038	 -38,943	 -0,113	 -29,914	 239,400
1,032	 -38,750	 -0,113	 -29,763	 241,300
1,026	 -38,561	 -0,113	 -29,618	 243,200
1,017	 -38,372	 -0,113	 -29,475	 245,100
1,009	 -38,184	 -0,113	 -29,328	 247,000
1,002	 -37,993	 -0,113	 -29,188	 248,900
0,996	 -37,808	 -0,113	 -29,036	 250,800
0,988	 -37,610	 -0,112	 -28,888	 252,700
0,983	 -37,424	 -0,113	 -28,746	 254,600
0,975	 -37,234	 -0,113	 -28,599	 256,500
0,970	 -37,046	 -0,113	 -28,454	 258,400
0,961	 -36,858	 -0,113	 -28,306	 260,300
0,953	 -36,663	 -0,113	 -28,163	 262,200
0,947	 -36,474	 -0,113	 -28,021	 264,100
0,938	 -36,283	 -0,113	 -27,870	 266,000
0,929	 -36,092	 -0,113	 -27,722	 267,900
0,923	 -35,904	 -0,113	 -27,576	 269,800
0,917	 -35,715	 -0,112	 -27,431	 271,700
0,910	 -35,526	 -0,113	 -27,289	 273,600
0,902	 -35,333	 -0,112	 -27,137	 275,500
0,895	 -35,144	 -0,113	 -26,992	 277,400
0,888	 -34,954	 -0,113	 -26,846	 279,300
0,876	 -34,763	 -0,112	 -26,702	 281,200
0,873	 -34,576	 -0,113	 -26,557	 283,100
0,866	 -34,383	 -0,113	 -26,407	 285,000
0,857	 -34,194	 -0,113	 -26,263	 286,900
0,849	 -34,009	 -0,113	 -26,119	 288,800
0,841	 -33,813	 -0,112	 -25,975	 290,700
0,833	 -33,626	 -0,113	 -25,825	 292,600
0,825	 -33,434	 -0,112	 -25,677	 294,500
0,817	 -33,243	 -0,113	 -25,537	 296,400
0,807	 -33,052	 -0,112	 -25,389	 298,300
0,798	 -32,867	 -0,112	 -25,241	 300,200
0,789	 -32,673	 -0,113	 -25,098	 302,100
0,777	 -32,482	 -0,112	 -24,946	 304,000
0,767	 -32,295	 -0,113	 -24,804	 305,900
0,758	 -32,103	 -0,112	 -24,655	 307,800
0,746	 -31,916	 -0,113	 -24,512	 309,700
0,734	 -31,726	 -0,113	 -24,367	 311,600
0,725	 -31,531	 -0,112	 -24,219	 313,500
0,715	 -31,347	 -0,113	 -24,074	 315,400
0,703	 -31,154	 -0,113	 -23,923	 317,300
0,692	 -30,969	 -0,113	 -23,783	 319,200
0,680	 -30,775	 -0,113	 -23,635	 321,100
0,668	 -30,582	 -0,113	 -23,489	 323,000
0,657	 -30,396	 -0,112	 -23,347	 324,900
0,647	 -30,207	 -0,113	 -23,199	 326,800
0,635	 -30,013	 -0,113	 -23,051	 328,700
0,624	 -29,829	 -0,112	 -22,904	 330,600
0,610	 -29,636	 -0,113	 -22,759	 332,500
0,596	 -29,445	 -0,113	 -22,610	 334,400
0,586	 -29,251	 -0,112	 -22,466	 336,300
0,572	 -29,065	 -0,112	 -22,323	 338,200
0,560	 -28,875	 -0,113	 -22,177	 340,100
0,546	 -28,687	 -0,113	 -22,030	 342,000
0,533	 -28,498	 -0,112	 -21,883	 343,900
0,519	 -28,306	 -0,113	 -21,734	 345,800
0,505	 -28,115	 -0,113	 -21,593	 347,700
0,491	 -27,924	 -0,113	 -21,445	 349,600
0,478	 -27,735	 -0,113	 -21,298	 351,500
0,464	 -27,545	 -0,113	 -21,154	 353,400
0,449	 -27,353	 -0,112	 -21,002	 355,300
0,434	 -27,169	 -0,113	 -20,860	 357,200
0,420	 -26,978	 -0,113	 -20,717	 359,100
0,406	 -26,781	 -0,112	 -20,568	 361,000
0,390	 -26,597	 -0,113	 -20,427	 362,900
0,376	 -26,402	 -0,113	 -20,279	 364,800
0,360	 -26,215	 -0,112	 -20,132	 366,700
0,345	 -26,021	 -0,112	 -19,980	 368,600
0,330	 -25,834	 -0,112	 -19,836	 370,500
0,314	 -25,642	 -0,113	 -19,694	 372,400
0,298	 -25,452	 -0,112	 -19,549	 374,300
0,284	 -25,263	 -0,113	 -19,405	 376,200
0,268	 -25,071	 -0,113	 -19,258	 378,100
0,252	 -24,883	 -0,112	 -19,107	 380,000
0,235	 -24,692	 -0,112	 -18,964	 381,900
0,221	 -24,499	 -0,112	 -18,818	 383,800
0,204	 -24,310	 -0,113	 -18,671	 385,700
0,189	 -24,121	 -0,113	 -18,525	 387,600
0,174	 -23,932	 -0,112	 -18,381	 389,500
0,159	 -23,740	 -0,112	 -18,236	 391,400
0,144	 -23,552	 -0,112	 -18,088	 393,300
0,129	 -23,358	 -0,112	 -17,937	 395,200
0,115	 -23,172	 -0,113	 -17,794	 397,100
0,101	 -22,980	 -0,113	 -17,649	 399,000
0,088	 -22,788	 -0,113	 -17,506	 400,900
0,075	 -22,601	 -0,112	 -17,357	 402,800
0,063	 -22,409	 -0,113	 -17,210	 404,700
0,052	 -22,218	 -0,112	 -17,066	 406,600
0,042	 -22,029	 -0,113	 -16,921	 408,500
0,032	 -21,841	 -0,113	 -16,775	 410,400
0,024	 -21,647	 -0,113	 -16,627	 412,300
0,017	 -21,460	 -0,113	 -16,482	 414,200
0,012	 -21,270	 -0,113	 -16,339	 416,100
0,007	 -21,077	 -0,113	 -16,190	 418,000
0,007	 -20,891	 -0,113	 -16,038	 419,900
0,007	 -20,701	 -0,112	 -15,896	 421,800
0,007	 -20,511	 -0,113	 -15,752	 423,700
0,006	 -20,322	 -0,113	 -15,606	 425,600
0,006	 -20,132	 -0,113	 -15,460	 427,500
0,007	 -19,940	 -0,113	 -15,315	 429,400
0,007	 -19,750	 -0,113	 -15,166	 431,300
0,007	 -19,560	 -0,113	 -15,020	 433,200
0,007	 -19,369	 -0,113	 -14,874	 435,100
0,007	 -19,177	 -0,113	 -14,724	 437,000
0,007	 -18,991	 -0,113	 -14,582	 438,900
0,007	 -18,799	 -0,113	 -14,439	 440,800
0,007	 -18,611	 -0,112	 -14,294	 442,700
0,007	 -18,553	 -0,113	 -14,248	 443,300