File: examples/data_example_9_b.txt
WORKSHOP 3 EXPORTED DATA: [C:\Documents and Settings\Administrator\Pulpit\Rozciaganie\w6_2.W01 - 1]
*************************************************************************************************
Source of data: ScriptPl
WS3 File Version: 1,05
Number of bytes in subfile: 10107
Total number of data points: 480
Test date: 30-01-2018
Test time: 17:32:26
Player Step: 1
Step Capture No: 1
Actuator: 1
*************************************************************************************************
Actuator: 1  Channel:0	 Actuator: 1  Channel:1	 Actuator: 1  Channel:2	 Actuator: 1  Channel:3	 Actuator: 1  Channel:4
Load (kN)	 Stroke (mm)	 Extension (mm)	 Command (%)	 Time (s)
0,005	-62,572	-1,164	-48,086	0
0,036	-62,525	-1,160	-48,055	2
0,039	-62,495	-1,157	-48,026	4
0,041	-62,453	-1,153	-47,994	6
0,047	-62,419	-1,150	-47,964	8
0,046	-62,376	-1,147	-47,935	10
0,050	-62,340	-1,144	-47,904	12
0,056	-62,298	-1,141	-47,875	14
0,062	-62,256	-1,138	-47,845	16
0,065	-62,213	-1,135	-47,811	18
0,071	-62,176	-1,132	-47,779	20
0,068	-62,141	-1,130	-47,751	22
0,074	-62,100	-1,126	-47,718	24
0,074	-62,058	-1,123	-47,691	26
0,081	-62,016	-1,120	-47,656	28
0,085	-61,977	-1,117	-47,630	30
0,089	-61,939	-1,114	-47,595	32
0,091	-61,899	-1,111	-47,568	34
0,096	-61,858	-1,108	-47,537	36
0,107	-61,822	-1,105	-47,503	38
0,129	-61,778	-1,102	-47,468	40
0,165	-61,742	-1,099	-47,438	42
0,288	-61,699	-1,096	-47,408	44
0,557	-61,663	-1,093	-47,377	46
1,325	-61,622	-1,090	-47,349	48
2,249	-61,587	-1,087	-47,316	50
3,558	-61,549	-1,084	-47,283	52
5,088	-61,509	-1,081	-47,257	54
6,812	-61,475	-1,077	-47,225	56
8,645	-61,437	-1,075	-47,196	58
10,607	-61,399	-1,070	-47,163	60
12,701	-61,361	-1,066	-47,132	62
14,623	-61,328	-1,062	-47,102	64
16,669	-61,291	-1,059	-47,074	66
18,778	-61,250	-1,055	-47,043	68
20,818	-61,219	-1,050	-47,011	70
22,732	-61,178	-1,045	-46,978	72
24,725	-61,141	-1,040	-46,947	74
26,546	-61,104	-1,033	-46,920	76
28,376	-61,065	-1,026	-46,890	78
30,213	-61,029	-1,011	-46,856	80
31,869	-60,992	-0,998	-46,826	82
33,380	-60,953	-0,985	-46,793	84
35,177	-60,911	-0,968	-46,760	86
36,376	-60,875	-0,953	-46,734	88
37,663	-60,840	-0,934	-46,699	90
38,897	-60,800	-0,914	-46,673	92
39,958	-60,758	-0,890	-46,639	94
40,977	-60,721	-0,868	-46,609	96
41,871	-60,685	-0,844	-46,581	98
42,787	-60,644	-0,820	-46,549	100
43,465	-60,606	-0,791	-46,521	102
44,174	-60,568	-0,759	-46,486	104
44,758	-60,526	-0,729	-46,457	106
45,365	-60,486	-0,699	-46,425	108
45,858	-60,449	-0,667	-46,392	110
46,303	-60,408	-0,637	-46,366	112
46,776	-60,369	-0,605	-46,334	114
47,191	-60,326	-0,571	-46,303	116
47,592	-60,285	-0,540	-46,274	118
47,817	-60,248	-0,512	-46,241	120
48,255	-60,209	-0,477	-46,212	122
48,434	-60,171	-0,454	-46,177	124
48,836	-60,123	-0,425	-46,152	126
48,993	-60,090	-0,401	-46,116	128
49,404	-60,045	-0,373	-46,083	130
49,532	-60,006	-0,338	-46,055	132
49,877	-59,972	-0,294	-46,024	134
50,077	-59,934	-0,254	-45,995	136
50,247	-59,893	-0,221	-45,965	138
50,338	-59,846	-0,167	-45,933	140
50,569	-59,816	-0,138	-45,906	142
50,935	-59,766	-0,110	-45,871	144
51,045	-59,734	-0,083	-45,839	146
51,228	-59,689	-0,050	-45,816	148
51,455	-59,652	-0,011	-45,783	150
51,555	-59,616	0,031	-45,750	152
51,772	-59,573	0,065	-45,722	154
51,873	-59,536	0,101	-45,695	156
52,037	-59,495	0,134	-45,662	158
52,149	-59,454	0,172	-45,628	160
52,372	-59,414	0,207	-45,599	162
52,423	-59,371	0,247	-45,569	164
52,506	-59,333	0,264	-45,537	166
52,867	-59,282	0,283	-45,496	168
52,688	-59,249	0,312	-45,469	170
52,827	-59,217	0,333	-45,437	172
53,122	-59,183	0,356	-45,408	174
53,176	-59,135	0,385	-45,379	176
53,244	-59,099	0,422	-45,351	178
53,372	-59,062	0,497	-45,315	180
53,493	-59,014	0,539	-45,289	182
53,540	-58,978	0,583	-45,256	184
53,604	-58,939	0,618	-45,226	186
53,855	-58,897	0,654	-45,198	188
53,862	-58,851	0,700	-45,167	190
53,889	-58,808	0,739	-45,134	192
53,946	-58,770	0,774	-45,107	194
54,040	-58,736	0,817	-45,073	196
54,127	-58,703	0,861	-45,040	198
54,317	-58,665	0,887	-45,013	200
54,336	-58,615	0,910	-44,981	202
54,351	-58,576	0,931	-44,952	204
54,400	-58,536	0,958	-44,923	206
54,453	-58,497	0,989	-44,892	208
54,519	-58,467	1,024	-44,855	210
54,697	-58,422	1,102	-44,828	212
54,702	-58,374	1,179	-44,793	214
54,712	-58,334	1,239	-44,764	216
54,761	-58,295	1,287	-44,738	218
54,814	-58,253	1,338	-44,705	220
54,873	-58,221	1,378	-44,673	222
54,942	-58,186	1,426	-44,643	224
55,143	-58,142	1,501	-44,613	226
55,093	-58,087	1,563	-44,583	228
54,958	-58,045	1,632	-44,554	230
55,027	-58,011	1,667	-44,520	232
55,115	-57,978	1,690	-44,486	234
55,276	-57,943	1,725	-44,458	236
55,306	-57,902	1,763	-44,424	238
55,332	-57,860	1,832	-44,398	240
55,344	-57,812	1,905	-44,365	242
55,365	-57,770	1,972	-44,335	244
55,395	-57,727	2,011	-44,304	246
55,422	-57,682	2,072	-44,275	248
55,461	-57,651	2,117	-44,243	250
55,501	-57,606	2,149	-44,207	252
55,536	-57,570	2,191	-44,181	254
55,574	-57,531	2,261	-44,152	256
55,606	-57,491	2,851	-44,120	258
55,642	-57,448	3,979	-44,090	260
55,669	-57,406	4,024	-44,058	262
55,672	-57,361	4,068	-44,025	264
55,685	-57,322	4,109	-43,996	266
55,714	-57,281	1,772	-43,969	268
55,747	-57,242	0,773	-43,938	270
55,780	-57,204	0,569	-43,905	272
55,801	-57,162	0,569	-43,878	274
55,782	-57,121	0,570	-43,849	276
55,827	-57,087	0,557	-43,814	278
55,869	-57,048	0,555	-43,782	280
55,891	-57,006	0,555	-43,754	282
55,920	-56,968	0,555	-43,723	284
55,898	-56,918	0,555	-43,692	286
55,844	-56,880	0,555	-43,662	288
55,905	-56,847	0,555	-43,631	290
55,948	-56,809	0,555	-43,604	292
55,990	-56,771	0,555	-43,565	294
56,018	-56,728	0,555	-43,533	296
56,032	-56,683	0,556	-43,504	298
55,878	-56,640	0,555	-43,471	300
55,936	-56,612	0,555	-43,443	302
56,000	-56,571	0,555	-43,414	304
56,055	-56,538	0,555	-43,377	306
56,082	-56,499	0,555	-43,354	308
56,112	-56,448	0,556	-43,322	310
56,104	-56,401	0,556	-43,289	312
55,859	-56,366	0,556	-43,259	314
55,957	-56,334	0,555	-43,228	316
56,060	-56,308	0,556	-43,201	318
56,175	-56,264	0,556	-43,167	320
56,170	-56,214	0,556	-43,138	322
56,135	-56,165	0,555	-43,105	324
55,940	-56,114	0,555	-43,077	326
55,969	-56,084	0,555	-43,045	328
56,035	-56,058	0,556	-43,013	330
56,101	-56,017	0,556	-42,985	332
56,134	-55,976	0,555	-42,955	334
56,156	-55,934	0,556	-42,924	336
56,148	-55,883	0,556	-42,891	338
56,098	-55,838	0,556	-42,860	340
55,909	-55,806	0,555	-42,828	342
55,986	-55,774	0,556	-42,798	344
56,072	-55,743	0,555	-42,768	346
56,159	-55,700	0,556	-42,740	348
56,139	-55,655	0,556	-42,709	350
56,085	-55,607	0,556	-42,678	352
55,977	-55,554	0,556	-42,647	354
55,771	-55,528	0,556	-42,614	356
55,911	-55,505	0,555	-42,586	358
56,129	-55,459	0,556	-42,552	360
56,066	-55,409	0,556	-42,520	362
55,958	-55,353	0,555	-42,486	364
55,738	-55,313	0,556	-42,460	366
55,796	-55,285	0,556	-42,432	368
55,861	-55,251	0,556	-42,400	370
55,879	-55,221	0,555	-42,373	372
55,898	-55,180	0,556	-42,339	374
55,881	-55,130	0,556	-42,306	376
55,823	-55,082	0,556	-42,278	378
55,576	-55,035	0,556	-42,242	380
55,474	-55,007	0,556	-42,213	382
55,580	-54,979	0,555	-42,181	384
55,740	-54,943	0,555	-42,152	386
55,718	-54,892	0,556	-42,119	388
55,565	-54,836	0,555	-42,091	390
55,122	-54,796	0,556	-42,060	392
55,239	-54,772	0,556	-42,028	394
55,433	-54,743	0,556	-41,997	396
55,489	-54,693	0,556	-41,970	398
55,287	-54,631	0,556	-41,938	400
55,024	-54,595	0,556	-41,904	402
55,053	-54,556	0,556	-41,883	404
55,050	-54,512	0,555	-41,844	406
54,972	-54,468	0,556	-41,817	408
54,780	-54,433	0,556	-41,788	410
54,811	-54,404	0,555	-41,753	412
54,797	-54,362	0,556	-41,724	414
54,717	-54,313	0,556	-41,698	416
54,249	-54,282	0,556	-41,664	418
54,388	-54,258	0,556	-41,636	420
54,598	-54,218	0,556	-41,596	422
54,401	-54,163	0,556	-41,564	424
53,827	-54,113	0,556	-41,536	426
53,912	-54,077	0,556	-41,504	428
53,930	-54,048	0,556	-41,476	430
53,920	-54,010	0,556	-41,445	432
53,847	-53,959	0,556	-41,416	434
53,032	-53,929	0,556	-41,388	436
53,534	-53,897	0,556	-41,355	438
53,509	-53,850	0,556	-41,322	440
53,198	-53,789	0,556	-41,293	442
52,828	-53,757	0,556	-41,262	444
52,860	-53,722	0,556	-41,233	446
52,843	-53,686	0,556	-41,202	448
52,659	-53,630	0,556	-41,173	450
52,083	-53,612	0,556	-41,140	452
52,504	-53,577	0,555	-41,113	454
52,214	-53,511	0,556	-41,080	456
51,421	-53,489	0,556	-41,048	458
51,947	-53,459	0,556	-41,018	460
51,671	-53,393	0,555	-40,988	462
51,041	-53,359	0,556	-40,953	464
51,132	-53,320	0,556	-40,921	466
51,097	-53,285	0,556	-40,894	468
50,187	-53,241	0,556	-40,861	470
50,359	-53,211	0,556	-40,832	472
50,545	-53,167	0,556	-40,799	474
0,008	-53,070	0,562	-40,769	476
0,006	-53,030	0,562	-40,743	478
0,006	-53,011	0,562	-40,726	479