File: examples/data_example_4.txt
WORKSHOP 3 EXPORTED DATA: [C:\Documents and Settings\Administrator\Pulpit\Rozciaganie\w5_1_1.W01 - 1]
*************************************************************************************************
Source of data: ScriptPl
WS3 File Version: 1,05
Number of bytes in subfile: 14187
Total number of data points: 684
Test date: 30-01-2018
Test time: 15:53:05
Player Step: 1
Step Capture No: 1
Actuator: 1
*************************************************************************************************
Actuator: 1  Channel:0	 Actuator: 1  Channel:1	 Actuator: 1  Channel:2	 Actuator: 1  Channel:3	 Actuator: 1  Channel:4
Load (kN)	 Stroke (mm)	 Extension (mm)	 Command (%)	 Time (s)
0,200	 -50,577	 0,000	 -38,869	 0,000
0,446	 -50,537	 0,000	 -38,850	 3,000
0,444	 -50,510	 0,000	 -38,822	 6,000
0,445	 -50,480	 0,000	 -38,802	 9,000
0,444	 -50,449	 0,000	 -38,779	 12,000
0,446	 -50,421	 0,000	 -38,755	 15,000
0,449	 -50,392	 0,000	 -38,730	 18,000
0,446	 -50,361	 0,000	 -38,707	 21,000
0,446	 -50,334	 0,000	 -38,686	 24,000
0,446	 -50,301	 0,000	 -38,657	 27,000
0,447	 -50,268	 0,000	 -38,633	 30,000
0,446	 -50,248	 0,000	 -38,611	 33,000
0,448	 -50,213	 0,000	 -38,583	 36,000
0,446	 -50,182	 0,000	 -38,560	 39,000
0,448	 -50,155	 0,000	 -38,541	 42,000
0,451	 -50,121	 0,000	 -38,519	 45,000
0,450	 -50,086	 0,000	 -38,494	 48,000
0,448	 -50,062	 0,000	 -38,475	 51,000
0,449	 -50,030	 0,000	 -38,449	 54,000
0,452	 -50,003	 0,000	 -38,425	 57,000
0,453	 -49,970	 0,000	 -38,404	 60,000
0,451	 -49,939	 0,000	 -38,381	 63,000
0,453	 -49,908	 0,000	 -38,360	 66,000
0,457	 -49,880	 0,000	 -38,337	 69,000
0,452	 -49,848	 0,000	 -38,313	 72,000
0,455	 -49,824	 0,000	 -38,293	 75,000
0,453	 -49,799	 0,000	 -38,267	 78,000
0,457	 -49,762	 0,000	 -38,243	 81,000
0,460	 -49,731	 0,000	 -38,221	 84,000
0,457	 -49,697	 0,000	 -38,198	 87,000
0,463	 -49,671	 0,000	 -38,178	 90,000
0,460	 -49,639	 0,000	 -38,152	 93,000
0,462	 -49,609	 0,000	 -38,133	 96,000
0,460	 -49,580	 0,000	 -38,105	 99,000
0,457	 -49,551	 0,000	 -38,081	 102,000
0,463	 -49,516	 0,000	 -38,061	 105,000
0,470	 -49,484	 0,000	 -38,039	 108,000
0,477	 -49,454	 0,000	 -38,014	 111,000
0,476	 -49,426	 0,000	 -37,989	 114,000
0,477	 -49,397	 0,000	 -37,967	 117,000
0,477	 -49,368	 0,000	 -37,945	 120,000
0,477	 -49,336	 0,000	 -37,921	 123,000
0,479	 -49,303	 0,000	 -37,899	 126,000
0,481	 -49,277	 0,000	 -37,876	 129,000
0,486	 -49,245	 0,000	 -37,851	 132,000
0,488	 -49,217	 0,000	 -37,830	 135,000
0,489	 -49,189	 0,000	 -37,807	 138,000
0,490	 -49,159	 0,000	 -37,785	 141,000
0,494	 -49,125	 0,000	 -37,762	 144,000
0,495	 -49,095	 0,000	 -37,741	 147,000
0,504	 -49,066	 0,000	 -37,715	 150,000
0,529	 -49,037	 0,000	 -37,692	 153,000
0,523	 -49,005	 0,000	 -37,668	 156,000
0,530	 -48,978	 0,000	 -37,644	 159,000
0,562	 -48,950	 0,000	 -37,620	 162,000
0,548	 -48,916	 0,000	 -37,594	 165,000
0,685	 -48,891	 0,000	 -37,573	 168,000
0,985	 -48,867	 0,000	 -37,554	 171,000
1,603	 -48,839	 0,000	 -37,529	 174,000
2,491	 -48,807	 0,000	 -37,508	 177,000
3,577	 -48,782	 0,000	 -37,485	 180,000
4,749	 -48,752	 0,000	 -37,461	 183,000
6,065	 -48,724	 0,000	 -37,439	 186,000
7,383	 -48,696	 0,000	 -37,417	 189,000
8,730	 -48,666	 0,000	 -37,391	 192,000
10,129	 -48,639	 0,000	 -37,369	 195,000
11,562	 -48,608	 0,000	 -37,342	 198,000
13,036	 -48,578	 0,000	 -37,317	 201,000
14,578	 -48,549	 0,000	 -37,297	 204,000
16,024	 -48,521	 0,000	 -37,275	 207,000
17,551	 -48,494	 0,000	 -37,253	 210,000
19,036	 -48,462	 0,000	 -37,230	 213,000
20,635	 -48,437	 0,000	 -37,208	 216,000
22,164	 -48,404	 0,000	 -37,182	 219,000
23,636	 -48,381	 0,000	 -37,158	 222,000
25,130	 -48,348	 0,000	 -37,134	 225,000
26,572	 -48,325	 0,000	 -37,112	 228,000
28,100	 -48,293	 0,000	 -37,092	 231,000
29,535	 -48,263	 0,000	 -37,067	 234,000
31,005	 -48,238	 0,000	 -37,046	 237,000
32,428	 -48,209	 0,000	 -37,024	 240,000
33,912	 -48,179	 0,000	 -37,000	 243,000
35,333	 -48,152	 0,000	 -36,978	 246,000
36,773	 -48,123	 0,000	 -36,952	 249,000
38,226	 -48,096	 0,000	 -36,931	 252,000
39,699	 -48,068	 0,000	 -36,911	 255,000
41,060	 -48,039	 0,001	 -36,887	 258,000
42,560	 -48,008	 0,000	 -36,864	 261,000
43,920	 -47,980	 0,000	 -36,840	 264,000
45,268	 -47,954	 0,000	 -36,819	 267,000
46,589	 -47,924	 0,000	 -36,799	 270,000
47,869	 -47,896	 0,000	 -36,773	 273,000
48,999	 -47,866	 0,000	 -36,753	 276,000
49,859	 -47,840	 0,000	 -36,724	 279,000
50,479	 -47,806	 0,000	 -36,693	 282,000
50,797	 -47,780	 0,000	 -36,673	 285,000
50,958	 -47,751	 0,000	 -36,650	 288,000
51,071	 -47,716	 0,000	 -36,631	 291,000
51,077	 -47,689	 0,000	 -36,605	 294,000
51,083	 -47,659	 0,000	 -36,583	 297,000
51,069	 -47,625	 0,000	 -36,558	 300,000
51,042	 -47,597	 0,000	 -36,539	 303,000
51,004	 -47,563	 0,000	 -36,516	 306,000
50,962	 -47,539	 0,000	 -36,491	 309,000
50,957	 -47,503	 0,000	 -36,467	 312,000
50,913	 -47,476	 0,000	 -36,443	 315,000
50,902	 -47,442	 0,000	 -36,421	 318,000
50,885	 -47,410	 0,000	 -36,400	 321,000
50,870	 -47,384	 0,000	 -36,379	 324,000
50,865	 -47,352	 0,000	 -36,356	 327,000
50,857	 -47,322	 0,000	 -36,334	 330,000
50,857	 -47,287	 0,000	 -36,309	 333,000
50,834	 -47,261	 0,000	 -36,286	 336,000
50,834	 -47,234	 0,000	 -36,263	 339,000
50,831	 -47,200	 0,000	 -36,238	 342,000
50,834	 -47,173	 0,000	 -36,215	 345,000
50,828	 -47,139	 0,000	 -36,190	 348,000
50,825	 -47,111	 0,000	 -36,170	 351,000
50,825	 -47,079	 0,000	 -36,146	 354,000
50,833	 -47,046	 0,000	 -36,125	 357,000
50,825	 -47,020	 0,000	 -36,098	 360,000
50,825	 -46,989	 0,000	 -36,078	 363,000
50,828	 -46,959	 0,000	 -36,055	 366,000
50,835	 -46,931	 0,000	 -36,032	 369,000
50,839	 -46,900	 0,001	 -36,008	 372,000
50,838	 -46,871	 0,000	 -35,984	 375,000
50,842	 -46,842	 0,000	 -35,962	 378,000
50,835	 -46,811	 0,000	 -35,939	 381,000
50,845	 -46,777	 0,000	 -35,920	 384,000
50,852	 -46,753	 0,000	 -35,895	 387,000
50,845	 -46,722	 0,000	 -35,869	 390,000
50,838	 -46,692	 0,000	 -35,850	 393,000
50,844	 -46,662	 0,000	 -35,822	 396,000
50,847	 -46,633	 0,000	 -35,802	 399,000
50,856	 -46,603	 0,001	 -35,777	 402,000
50,848	 -46,569	 0,000	 -35,754	 405,000
50,846	 -46,545	 0,000	 -35,729	 408,000
50,852	 -46,511	 0,000	 -35,704	 411,000
50,853	 -46,483	 0,001	 -35,686	 414,000
50,846	 -46,450	 0,001	 -35,663	 417,000
50,851	 -46,421	 0,000	 -35,639	 420,000
50,854	 -46,390	 0,000	 -35,616	 423,000
50,845	 -46,362	 0,000	 -35,594	 426,000
50,844	 -46,327	 0,001	 -35,574	 429,000
50,833	 -46,302	 0,001	 -35,551	 432,000
50,841	 -46,268	 0,001	 -35,524	 435,000
50,841	 -46,237	 0,001	 -35,501	 438,000
50,848	 -46,214	 0,000	 -35,480	 441,000
50,839	 -46,179	 0,000	 -35,456	 444,000
50,834	 -46,148	 0,001	 -35,436	 447,000
50,821	 -46,121	 0,001	 -35,410	 450,000
50,828	 -46,086	 0,000	 -35,385	 453,000
50,828	 -46,058	 0,001	 -35,360	 456,000
50,828	 -46,030	 0,000	 -35,342	 459,000
50,819	 -45,999	 0,000	 -35,315	 462,000
50,803	 -45,968	 0,000	 -35,293	 465,000
50,798	 -45,939	 0,000	 -35,270	 468,000
50,788	 -45,905	 0,000	 -35,247	 471,000
50,762	 -45,878	 0,000	 -35,227	 474,000
50,792	 -45,848	 0,000	 -35,201	 477,000
50,777	 -45,822	 0,001	 -35,179	 480,000
50,757	 -45,787	 0,001	 -35,153	 483,000
50,749	 -45,760	 0,001	 -35,129	 486,000
50,727	 -45,730	 0,000	 -35,110	 489,000
50,757	 -45,700	 0,001	 -35,088	 492,000
50,729	 -45,672	 0,000	 -35,064	 495,000
50,699	 -45,636	 0,000	 -35,042	 498,000
50,655	 -45,612	 0,001	 -35,020	 501,000
50,698	 -45,578	 0,001	 -34,995	 504,000
50,657	 -45,554	 0,000	 -34,975	 507,000
50,643	 -45,524	 0,001	 -34,952	 510,000
50,628	 -45,497	 0,000	 -34,927	 513,000
50,614	 -45,465	 0,001	 -34,902	 516,000
50,622	 -45,436	 0,001	 -34,879	 519,000
50,591	 -45,407	 0,001	 -34,862	 522,000
50,569	 -45,377	 0,000	 -34,836	 525,000
50,523	 -45,347	 0,001	 -34,813	 528,000
50,529	 -45,323	 0,000	 -34,791	 531,000
50,525	 -45,286	 0,001	 -34,766	 534,000
50,478	 -45,259	 0,001	 -34,737	 537,000
50,440	 -45,227	 0,000	 -34,715	 540,000
50,429	 -45,195	 0,000	 -34,696	 543,000
50,394	 -45,167	 0,000	 -34,670	 546,000
50,348	 -45,137	 0,001	 -34,643	 549,000
50,343	 -45,111	 0,001	 -34,623	 552,000
50,314	 -45,076	 0,001	 -34,597	 555,000
50,275	 -45,044	 0,001	 -34,577	 558,000
50,220	 -45,014	 0,000	 -34,556	 561,000
50,188	 -44,989	 0,001	 -34,532	 564,000
50,152	 -44,954	 0,000	 -34,505	 567,000
50,117	 -44,921	 0,001	 -34,488	 570,000
50,070	 -44,893	 0,001	 -34,463	 573,000
50,015	 -44,863	 0,001	 -34,441	 576,000
49,993	 -44,829	 0,001	 -34,422	 579,000
49,938	 -44,801	 0,001	 -34,394	 582,000
49,878	 -44,769	 0,001	 -34,371	 585,000
49,823	 -44,738	 0,001	 -34,350	 588,000
49,774	 -44,705	 0,001	 -34,327	 591,000
49,725	 -44,678	 0,001	 -34,301	 594,000
49,687	 -44,645	 0,001	 -34,279	 597,000
49,598	 -44,615	 0,001	 -34,256	 600,000
49,573	 -44,584	 0,001	 -34,233	 603,000
49,476	 -44,553	 0,001	 -34,212	 606,000
49,421	 -44,520	 0,000	 -34,191	 609,000
49,362	 -44,492	 0,001	 -34,162	 612,000
49,309	 -44,462	 0,001	 -34,143	 615,000
49,208	 -44,431	 0,001	 -34,118	 618,000
49,161	 -44,402	 0,001	 -34,098	 621,000
49,075	 -44,372	 0,001	 -34,071	 624,000
49,026	 -44,341	 0,001	 -34,045	 627,000
48,932	 -44,311	 0,002	 -34,025	 630,000
48,851	 -44,284	 0,001	 -34,003	 633,000
48,796	 -44,252	 0,000	 -33,980	 636,000
48,683	 -44,223	 0,000	 -33,957	 639,000
48,612	 -44,196	 0,001	 -33,935	 642,000
48,501	 -44,165	 0,001	 -33,913	 645,000
48,434	 -44,131	 0,001	 -33,889	 648,000
48,325	 -44,102	 0,001	 -33,868	 651,000
48,237	 -44,073	 0,001	 -33,846	 654,000
48,132	 -44,046	 0,001	 -33,821	 657,000
48,076	 -44,011	 0,001	 -33,798	 660,000
47,919	 -43,979	 0,001	 -33,769	 663,000
47,750	 -43,950	 0,001	 -33,747	 666,000
47,657	 -43,920	 0,001	 -33,729	 669,000
47,506	 -43,891	 0,001	 -33,703	 672,000
47,321	 -43,861	 0,001	 -33,681	 675,000
0,452	 -43,798	 0,005	 -33,655	 678,000
0,453	 -43,772	 0,006	 -33,638	 681,000
0,457	 -43,748	 0,005	 -33,616	 683,000