File: examples/data_example_7_b.txt
WORKSHOP 3 EXPORTED DATA: [C:\Documents and Settings\Administrator\Pulpit\Rozciaganie\w5_2.W01 - 1]
*************************************************************************************************
Source of data: ScriptPl
WS3 File Version: 1,05
Number of bytes in subfile: 10427
Total number of data points: 496
Test date: 30-01-2018
Test time: 16:53:17
Player Step: 1
Step Capture No: 1
Actuator: 1
*************************************************************************************************
Actuator: 1  Channel:0	 Actuator: 1  Channel:1	 Actuator: 1  Channel:2	 Actuator: 1  Channel:3	 Actuator: 1  Channel:4
Load (kN)	 Stroke (mm)	 Extension (mm)	 Command (%)	 Time (s)
0,911	-61,358	0,000	-47,155	0
1,706	-61,324	0,000	-47,125	2
2,462	-61,287	0,002	-47,099	4
3,391	-61,252	0,006	-47,065	6
4,285	-61,211	0,008	-47,033	8
5,243	-61,172	0,014	-47,001	10
6,244	-61,134	0,018	-46,977	12
7,276	-61,094	0,021	-46,940	14
8,501	-61,059	0,021	-46,906	16
10,089	-61,023	0,025	-46,876	18
11,775	-60,980	0,031	-46,848	20
13,642	-60,944	0,035	-46,817	22
15,410	-60,911	0,035	-46,784	24
17,441	-60,868	0,043	-46,754	26
19,377	-60,833	0,045	-46,722	28
21,415	-60,796	0,047	-46,697	30
23,261	-60,756	0,049	-46,662	32
25,108	-60,724	0,066	-46,633	34
26,845	-60,685	0,102	-46,602	36
28,697	-60,643	0,130	-46,574	38
30,333	-60,610	0,158	-46,548	40
31,813	-60,572	0,187	-46,515	42
33,335	-60,533	0,224	-46,476	44
34,738	-60,497	0,261	-46,448	46
35,975	-60,457	0,300	-46,416	48
37,129	-60,419	0,348	-46,387	50
38,224	-60,381	0,413	-46,358	52
39,217	-60,340	0,483	-46,327	54
40,111	-60,302	0,555	-46,294	56
41,013	-60,266	0,639	-46,262	58
41,754	-60,225	0,727	-46,233	60
42,536	-60,186	0,809	-46,198	62
43,202	-60,150	0,897	-46,169	64
43,780	-60,108	0,973	-46,144	66
44,495	-60,071	1,054	-46,109	68
44,978	-60,027	1,133	-46,079	70
45,471	-59,987	1,216	-46,046	72
45,951	-59,951	1,290	-46,015	74
46,407	-59,912	1,366	-45,983	76
46,820	-59,868	1,440	-45,954	78
47,297	-59,835	1,513	-45,927	80
47,676	-59,794	1,584	-45,892	82
48,053	-59,752	1,658	-45,864	84
48,421	-59,710	1,735	-45,838	86
48,772	-59,675	1,805	-45,803	88
49,180	-59,636	1,869	-45,772	90
49,430	-59,594	1,933	-45,743	92
49,804	-59,556	1,996	-45,708	94
50,026	-59,513	2,055	-45,683	96
50,447	-59,473	2,112	-45,650	98
50,572	-59,439	2,164	-45,621	100
50,852	-59,396	2,214	-45,588	102
51,211	-59,357	2,256	-45,560	104
51,494	-59,315	2,298	-45,522	106
51,604	-59,278	2,340	-45,494	108
51,865	-59,238	2,378	-45,464	110
52,131	-59,200	2,420	-45,431	112
52,361	-59,156	2,456	-45,402	114
52,568	-59,123	2,496	-45,376	116
52,760	-59,079	2,537	-45,343	118
53,025	-59,034	2,575	-45,311	120
53,140	-59,003	2,613	-45,277	122
53,356	-58,957	2,651	-45,248	124
53,552	-58,922	2,688	-45,219	126
53,721	-58,881	2,727	-45,187	128
53,886	-58,841	2,763	-45,160	130
54,048	-58,798	2,804	-45,128	132
54,213	-58,761	2,838	-45,098	134
54,376	-58,721	2,875	-45,069	136
54,553	-58,682	2,911	-45,036	138
54,680	-58,636	2,951	-45,005	140
54,888	-58,599	2,986	-44,977	142
54,978	-58,562	3,024	-44,938	144
55,166	-58,514	3,062	-44,918	146
55,231	-58,482	3,098	-44,880	148
55,407	-58,441	3,133	-44,850	150
55,528	-58,394	3,171	-44,816	152
55,623	-58,362	3,423	-44,787	154
55,774	-58,323	4,232	-44,761	156
55,874	-58,281	4,271	-44,728	158
56,033	-58,238	3,791	-44,694	160
56,091	-58,201	0,731	-44,661	162
56,295	-58,161	-0,151	-44,640	164
56,323	-58,119	2,392	-44,607	166
56,419	-58,080	2,398	-44,580	168
56,549	-58,042	2,398	-44,541	170
56,644	-58,004	2,393	-44,511	172
56,776	-57,963	2,395	-44,480	174
56,823	-57,919	2,396	-44,442	176
56,900	-57,883	2,397	-44,420	178
57,041	-57,842	2,399	-44,388	180
57,077	-57,801	2,400	-44,361	182
57,165	-57,763	2,399	-44,329	184
57,310	-57,726	2,399	-44,294	186
57,356	-57,680	2,399	-44,264	188
57,430	-57,645	2,400	-44,230	190
57,553	-57,601	2,399	-44,201	192
57,581	-57,556	2,400	-44,174	194
57,644	-57,526	2,399	-44,144	196
57,728	-57,485	2,400	-44,113	198
57,842	-57,445	2,400	-44,083	200
57,899	-57,404	2,399	-44,058	202
57,956	-57,365	2,400	-44,020	204
58,027	-57,327	2,399	-43,988	206
58,125	-57,281	2,399	-43,953	208
58,164	-57,241	2,400	-43,929	210
58,213	-57,205	2,399	-43,904	212
58,295	-57,163	2,400	-43,864	214
58,369	-57,123	2,400	-43,841	216
58,411	-57,085	2,400	-43,804	218
58,464	-57,045	2,400	-43,777	220
58,543	-57,003	2,400	-43,753	222
58,597	-56,965	2,400	-43,716	224
58,640	-56,925	2,399	-43,686	226
58,687	-56,884	2,400	-43,649	228
58,751	-56,844	2,399	-43,620	230
58,788	-56,804	2,399	-43,590	232
58,877	-56,769	2,400	-43,556	234
58,924	-56,724	2,400	-43,528	236
58,959	-56,687	2,400	-43,497	238
58,999	-56,646	2,400	-43,465	240
59,058	-56,607	2,400	-43,431	242
59,102	-56,567	2,400	-43,403	244
59,146	-56,524	2,400	-43,377	246
59,196	-56,484	2,400	-43,341	248
59,248	-56,445	2,401	-43,311	250
59,289	-56,403	2,400	-43,281	252
59,327	-56,362	2,400	-43,254	254
59,369	-56,324	2,400	-43,218	256
59,407	-56,283	2,400	-43,188	258
59,454	-56,244	2,400	-43,163	260
59,488	-56,205	2,400	-43,135	262
59,528	-56,164	2,400	-43,099	264
59,572	-56,121	2,400	-43,070	266
59,602	-56,084	2,400	-43,037	268
59,645	-56,045	2,401	-43,003	270
59,678	-56,007	2,401	-42,974	272
59,717	-55,966	2,400	-42,946	274
59,764	-55,926	2,400	-42,912	276
59,789	-55,884	2,401	-42,885	278
59,809	-55,846	2,400	-42,851	280
59,825	-55,805	2,401	-42,825	282
59,880	-55,769	2,400	-42,791	284
59,939	-55,725	2,400	-42,762	286
59,951	-55,685	2,400	-42,731	288
59,991	-55,642	2,400	-42,698	290
59,984	-55,603	2,401	-42,667	292
60,013	-55,562	2,400	-42,639	294
60,103	-55,528	2,400	-42,608	296
60,109	-55,486	2,400	-42,576	298
60,141	-55,445	2,399	-42,544	300
60,145	-55,405	2,400	-42,512	302
60,153	-55,362	2,400	-42,480	304
60,171	-55,330	2,400	-42,455	306
60,321	-55,285	2,400	-42,420	308
60,252	-55,241	2,400	-42,393	310
60,267	-55,199	2,401	-42,364	312
60,276	-55,158	2,400	-42,325	314
60,308	-55,117	2,400	-42,297	316
60,323	-55,082	2,400	-42,270	318
60,354	-55,045	2,401	-42,235	320
60,420	-55,007	2,400	-42,200	322
60,456	-54,965	2,400	-42,179	324
60,440	-54,929	2,400	-42,146	326
60,446	-54,887	2,400	-42,115	328
60,482	-54,846	2,400	-42,091	330
60,585	-54,806	2,401	-42,050	332
60,552	-54,760	2,400	-42,023	334
60,508	-54,722	2,401	-41,993	336
60,530	-54,679	2,400	-41,959	338
60,563	-54,643	2,401	-41,931	340
60,579	-54,602	2,401	-41,904	342
60,587	-54,567	2,400	-41,869	344
60,678	-54,531	2,400	-41,840	346
60,680	-54,484	2,400	-41,805	348
60,666	-54,443	2,400	-41,780	350
60,670	-54,405	2,400	-41,751	352
60,668	-54,365	2,400	-41,717	354
60,728	-54,321	2,401	-41,687	356
60,775	-54,284	2,400	-41,653	358
60,757	-54,238	2,401	-41,622	360
60,725	-54,207	2,400	-41,591	362
60,736	-54,165	2,401	-41,564	364
60,804	-54,123	2,401	-41,531	366
60,783	-54,086	2,401	-41,497	368
60,782	-54,046	2,400	-41,476	370
60,887	-54,000	2,400	-41,437	372
60,829	-53,959	2,400	-41,406	374
60,819	-53,919	2,400	-41,377	376
60,846	-53,880	2,400	-41,343	378
60,837	-53,839	2,400	-41,314	380
60,843	-53,806	2,401	-41,289	382
60,923	-53,766	2,400	-41,255	384
60,916	-53,719	2,400	-41,228	386
60,887	-53,685	2,400	-41,190	388
60,909	-53,646	2,400	-41,162	390
60,953	-53,602	2,400	-41,135	392
60,940	-53,565	2,400	-41,096	394
60,942	-53,526	2,401	-41,069	396
60,964	-53,486	2,400	-41,038	398
60,953	-53,447	2,400	-41,006	400
60,947	-53,402	2,400	-40,970	402
60,975	-53,364	2,401	-40,949	404
60,984	-53,324	2,401	-40,918	406
60,978	-53,283	2,401	-40,882	408
60,982	-53,244	2,401	-40,861	410
60,988	-53,202	2,401	-40,828	412
60,981	-53,166	2,401	-40,793	414
61,004	-53,123	2,401	-40,773	416
61,023	-53,085	2,401	-40,728	418
61,001	-53,040	2,401	-40,704	420
60,997	-53,004	2,401	-40,674	422
61,026	-52,965	2,401	-40,635	424
61,014	-52,923	2,401	-40,608	426
61,006	-52,883	2,401	-40,574	428
61,014	-52,843	2,401	-40,542	430
61,030	-52,800	2,401	-40,513	432
60,993	-52,762	2,401	-40,487	434
60,970	-52,723	2,401	-40,457	436
60,981	-52,682	2,401	-40,425	438
61,001	-52,644	2,401	-40,392	440
61,011	-52,602	2,402	-40,355	442
61,010	-52,556	2,401	-40,325	444
60,965	-52,518	2,401	-40,296	446
60,939	-52,478	2,401	-40,268	448
60,931	-52,435	2,401	-40,238	450
60,923	-52,394	2,401	-40,201	452
60,911	-52,356	2,402	-40,176	454
60,866	-52,311	2,408	-40,146	456
60,827	-52,271	2,408	-40,125	458
60,801	-52,238	2,407	-40,083	460
60,799	-52,191	2,408	-40,047	462
60,787	-52,149	2,408	-40,025	464
60,703	-52,112	2,407	-39,993	466
60,646	-52,067	2,408	-39,956	468
60,590	-52,028	2,407	-39,931	470
60,559	-51,990	2,407	-39,905	472
60,471	-51,951	2,408	-39,871	474
60,326	-51,912	2,407	-39,842	476
60,324	-51,870	2,408	-39,815	478
0,001	-51,771	2,416	-39,782	480
0,003	-51,733	2,416	-39,752	482
0,004	-51,694	2,415	-39,713	484
0,006	-51,654	2,415	-39,684	486
0,010	-51,609	2,416	-39,648	488
0,008	-51,572	2,415	-39,619	490
0,006	-51,533	2,415	-39,588	492
0,006	-51,488	2,416	-39,560	494
0,007	-51,470	2,415	-39,542	495