File: examples/data_example_11.txt
WORKSHOP 3 EXPORTED DATA: [C:\Documents and Settings\Administrator\Pulpit\Rozciaganie\w7_2.W01 - 1]
*************************************************************************************************
Source of data: ScriptPl
WS3 File Version: 1,05
Number of bytes in subfile: 7527
Total number of data points: 351
Test date: 30-01-2018
Test time: 18:10:40
Player Step: 1
Step Capture No: 1
Actuator: 1
*************************************************************************************************
Actuator: 1  Channel:0	 Actuator: 1  Channel:1	 Actuator: 1  Channel:2	 Actuator: 1  Channel:3	 Actuator: 1  Channel:4
Load (kN)	 Stroke (mm)	 Extension (mm)	 Command (%)	 Time (s)
0,676	 -60,492	 0,000	 -46,486	 0,000
1,752	 -60,447	 0,003	 -46,456	 2,000
2,628	 -60,418	 0,006	 -46,426	 4,000
3,790	 -60,380	 0,010	 -46,396	 6,000
5,144	 -60,339	 0,016	 -46,365	 8,000
6,485	 -60,303	 0,022	 -46,331	 10,000
7,956	 -60,265	 0,029	 -46,301	 12,000
9,660	 -60,222	 0,037	 -46,273	 14,000
11,408	 -60,191	 0,045	 -46,240	 16,000
13,250	 -60,147	 0,054	 -46,209	 18,000
15,328	 -60,109	 0,064	 -46,179	 20,000
17,345	 -60,073	 0,073	 -46,147	 22,000
19,314	 -60,038	 0,083	 -46,119	 24,000
21,396	 -60,000	 0,094	 -46,090	 26,000
23,404	 -59,964	 0,105	 -46,056	 28,000
25,430	 -59,928	 0,116	 -46,023	 30,000
27,427	 -59,888	 0,127	 -45,995	 32,000
29,411	 -59,850	 0,140	 -45,959	 34,000
31,290	 -59,812	 0,152	 -45,936	 36,000
33,306	 -59,774	 0,166	 -45,904	 38,000
35,072	 -59,742	 0,179	 -45,875	 40,000
36,909	 -59,703	 0,194	 -45,841	 42,000
38,639	 -59,664	 0,209	 -45,811	 44,000
40,376	 -59,627	 0,225	 -45,783	 46,000
41,979	 -59,590	 0,242	 -45,752	 48,000
43,635	 -59,552	 0,260	 -45,720	 50,000
45,131	 -59,515	 0,278	 -45,695	 52,000
46,590	 -59,474	 0,298	 -45,662	 54,000
48,062	 -59,437	 0,317	 -45,632	 56,000
49,541	 -59,397	 0,341	 -45,600	 58,000
50,652	 -59,357	 0,363	 -45,568	 60,000
51,866	 -59,319	 0,388	 -45,535	 62,000
52,950	 -59,281	 0,412	 -45,501	 64,000
53,932	 -59,238	 0,437	 -45,467	 66,000
54,921	 -59,201	 0,465	 -45,440	 68,000
55,703	 -59,163	 0,490	 -45,408	 70,000
56,435	 -59,128	 0,519	 -45,378	 72,000
57,172	 -59,087	 0,548	 -45,348	 74,000
57,784	 -59,049	 0,577	 -45,315	 76,000
58,404	 -59,010	 0,607	 -45,285	 78,000
58,951	 -58,968	 0,638	 -45,258	 80,000
59,468	 -58,928	 0,671	 -45,226	 82,000
59,931	 -58,894	 0,702	 -45,200	 84,000
60,355	 -58,853	 0,737	 -45,169	 86,000
60,748	 -58,819	 0,769	 -45,137	 88,000
61,114	 -58,777	 0,804	 -45,101	 90,000
61,504	 -58,736	 0,838	 -45,072	 92,000
61,786	 -58,693	 0,872	 -45,044	 94,000
62,062	 -58,657	 0,908	 -45,013	 96,000
62,375	 -58,622	 0,943	 -44,985	 98,000
62,629	 -58,578	 0,979	 -44,952	 100,000
62,864	 -58,538	 1,015	 -44,919	 102,000
63,096	 -58,500	 1,052	 -44,888	 104,000
63,296	 -58,456	 1,088	 -44,858	 106,000
63,574	 -58,418	 1,126	 -44,830	 108,000
63,651	 -58,377	 1,164	 -44,796	 110,000
63,899	 -58,341	 1,200	 -44,767	 112,000
64,062	 -58,301	 1,239	 -44,736	 114,000
64,153	 -58,262	 1,276	 -44,705	 116,000
64,357	 -58,220	 1,313	 -44,674	 118,000
64,453	 -58,181	 1,351	 -44,642	 120,000
64,602	 -58,142	 1,389	 -44,614	 122,000
64,690	 -58,101	 1,427	 -44,585	 124,000
64,846	 -58,063	 1,468	 -44,554	 126,000
64,891	 -58,020	 1,507	 -44,519	 128,000
65,035	 -57,981	 1,543	 -44,486	 130,000
65,121	 -57,940	 1,583	 -44,457	 132,000
65,191	 -57,902	 1,621	 -44,431	 134,000
65,347	 -57,862	 1,660	 -44,400	 136,000
65,380	 -57,820	 1,703	 -44,366	 138,000
65,423	 -57,778	 0,741	 -44,332	 140,000
65,551	 -57,744	 0,089	 -44,304	 142,000
65,575	 -57,700	 0,089	 -44,275	 144,000
65,639	 -57,658	 0,086	 -44,241	 146,000
65,715	 -57,621	 0,085	 -44,212	 148,000
65,765	 -57,578	 0,085	 -44,181	 150,000
65,802	 -57,538	 0,085	 -44,150	 152,000
65,955	 -57,502	 0,085	 -44,121	 154,000
65,896	 -57,463	 0,084	 -44,087	 156,000
65,952	 -57,418	 0,084	 -44,057	 158,000
65,989	 -57,379	 0,072	 -44,027	 160,000
65,987	 -57,338	 0,070	 -43,997	 162,000
66,036	 -57,304	 0,070	 -43,968	 164,000
66,077	 -57,263	 0,071	 -43,938	 166,000
66,124	 -57,219	 0,070	 -43,908	 168,000
66,155	 -57,176	 0,070	 -43,874	 170,000
66,139	 -57,139	 0,070	 -43,846	 172,000
66,145	 -57,097	 0,070	 -43,813	 174,000
66,178	 -57,059	 0,070	 -43,785	 176,000
66,168	 -57,020	 0,070	 -43,752	 178,000
66,210	 -56,982	 0,070	 -43,723	 180,000
66,221	 -56,939	 0,070	 -43,697	 182,000
66,176	 -56,898	 0,070	 -43,662	 184,000
66,220	 -56,854	 0,070	 -43,632	 186,000
66,217	 -56,816	 0,070	 -43,600	 188,000
66,171	 -56,781	 0,070	 -43,561	 190,000
66,194	 -56,736	 0,070	 -43,533	 192,000
66,157	 -56,694	 0,070	 -43,503	 194,000
66,151	 -56,653	 0,070	 -43,471	 196,000
66,118	 -56,617	 0,070	 -43,442	 198,000
66,103	 -56,574	 0,070	 -43,410	 200,000
66,114	 -56,539	 0,070	 -43,381	 202,000
65,970	 -56,496	 0,070	 -43,350	 204,000
66,056	 -56,457	 0,070	 -43,320	 206,000
65,890	 -56,418	 0,070	 -43,290	 208,000
65,995	 -56,382	 0,070	 -43,260	 210,000
65,976	 -56,334	 0,070	 -43,228	 212,000
65,824	 -56,297	 0,070	 -43,201	 214,000
65,852	 -56,256	 0,070	 -43,169	 216,000
65,749	 -56,214	 0,070	 -43,138	 218,000
65,774	 -56,176	 0,070	 -43,107	 220,000
65,698	 -56,133	 0,070	 -43,076	 222,000
65,626	 -56,094	 0,070	 -43,044	 224,000
65,623	 -56,053	 0,070	 -43,015	 226,000
65,563	 -56,010	 0,070	 -42,985	 228,000
65,480	 -55,969	 0,069	 -42,947	 230,000
65,412	 -55,931	 0,070	 -42,923	 232,000
65,370	 -55,895	 0,070	 -42,893	 234,000
65,189	 -55,853	 0,070	 -42,859	 236,000
65,323	 -55,815	 0,070	 -42,833	 238,000
64,909	 -55,778	 0,070	 -42,798	 240,000
65,178	 -55,738	 0,070	 -42,766	 242,000
64,940	 -55,693	 0,070	 -42,739	 244,000
64,933	 -55,652	 0,070	 -42,710	 246,000
64,832	 -55,610	 0,070	 -42,677	 248,000
64,852	 -55,568	 0,070	 -42,648	 250,000
64,632	 -55,537	 0,070	 -42,619	 252,000
64,589	 -55,489	 0,070	 -42,584	 254,000
64,531	 -55,447	 0,070	 -42,554	 256,000
64,392	 -55,412	 0,070	 -42,522	 258,000
64,345	 -55,369	 0,070	 -42,487	 260,000
64,231	 -55,331	 0,070	 -42,459	 262,000
64,181	 -55,287	 0,070	 -42,430	 264,000
63,978	 -55,247	 0,070	 -42,399	 266,000
63,867	 -55,207	 0,070	 -42,370	 268,000
63,810	 -55,172	 0,070	 -42,340	 270,000
63,554	 -55,126	 0,070	 -42,309	 272,000
63,577	 -55,089	 0,070	 -42,274	 274,000
63,427	 -55,045	 0,070	 -42,246	 276,000
63,267	 -55,004	 0,070	 -42,213	 278,000
63,133	 -54,970	 0,070	 -42,183	 280,000
63,090	 -54,922	 0,070	 -42,154	 282,000
62,849	 -54,882	 0,070	 -42,122	 284,000
62,722	 -54,845	 0,070	 -42,093	 286,000
62,556	 -54,804	 0,070	 -42,064	 288,000
62,418	 -54,764	 0,070	 -42,031	 290,000
62,260	 -54,725	 0,070	 -42,001	 292,000
62,070	 -54,685	 0,070	 -41,969	 294,000
61,920	 -54,648	 0,069	 -41,941	 296,000
61,691	 -54,609	 0,070	 -41,909	 298,000
61,628	 -54,562	 0,070	 -41,878	 300,000
61,298	 -54,522	 0,070	 -41,846	 302,000
61,165	 -54,481	 0,070	 -41,819	 304,000
60,901	 -54,441	 0,070	 -41,787	 306,000
60,828	 -54,400	 0,070	 -41,755	 308,000
60,589	 -54,361	 0,070	 -41,729	 310,000
60,322	 -54,326	 0,070	 -41,697	 312,000
60,014	 -54,281	 0,070	 -41,664	 314,000
59,889	 -54,238	 0,070	 -41,629	 316,000
59,660	 -54,197	 0,070	 -41,597	 318,000
59,319	 -54,162	 0,070	 -41,565	 320,000
59,240	 -54,116	 0,069	 -41,536	 322,000
58,747	 -54,080	 0,070	 -41,505	 324,000
58,626	 -54,037	 0,070	 -41,477	 326,000
58,283	 -53,996	 0,070	 -41,445	 328,000
57,995	 -53,955	 0,070	 -41,416	 330,000
57,792	 -53,917	 0,070	 -41,385	 332,000
57,389	 -53,877	 0,070	 -41,355	 334,000
56,978	 -53,832	 0,070	 -41,322	 336,000
56,830	 -53,789	 0,070	 -41,293	 338,000
56,427	 -53,750	 0,070	 -41,267	 340,000
56,145	 -53,715	 0,070	 -41,233	 342,000
0,012	 -53,610	 0,073	 -41,201	 344,000
-0,003	 -53,579	 0,072	 -41,172	 346,000
0,001	 -53,536	 0,072	 -41,141	 348,000
0,001	 -53,496	 0,072	 -41,111	 350,000