File: examples/data_example_8.txt
WORKSHOP 3 EXPORTED DATA: [C:\Documents and Settings\Administrator\Pulpit\Rozciaganie\w6_1.W01 - 1]
*************************************************************************************************
Source of data: ScriptPl
WS3 File Version: 1,05
Number of bytes in subfile: 11887
Total number of data points: 569
Test date: 30-01-2018
Test time: 17:12:24
Player Step: 1
Step Capture No: 1
Actuator: 1
*************************************************************************************************
Actuator: 1  Channel:0	 Actuator: 1  Channel:1	 Actuator: 1  Channel:2	 Actuator: 1  Channel:3	 Actuator: 1  Channel:4
Load (kN)	 Stroke (mm)	 Extension (mm)	 Command (%)	 Time (s)
0,017	 -62,606	 0,000	 -48,112	 0,000
0,025	 -62,541	 0,000	 -48,068	 3,000
0,028	 -62,483	 0,002	 -48,020	 6,000
0,041	 -62,420	 0,002	 -47,973	 9,000
0,048	 -62,366	 0,005	 -47,931	 12,000
0,055	 -62,303	 0,000	 -47,876	 15,000
0,055	 -62,245	 -0,019	 -47,836	 18,000
0,062	 -62,189	 -0,019	 -47,788	 21,000
0,063	 -62,123	 -0,019	 -47,745	 24,000
0,069	 -62,065	 -0,018	 -47,696	 27,000
0,078	 -62,003	 -0,029	 -47,651	 30,000
0,080	 -61,946	 -0,023	 -47,608	 33,000
0,082	 -61,887	 -0,017	 -47,556	 36,000
0,096	 -61,826	 -0,021	 -47,515	 39,000
0,107	 -61,768	 -0,020	 -47,464	 42,000
0,109	 -61,705	 -0,017	 -47,420	 45,000
0,129	 -61,648	 -0,014	 -47,373	 48,000
0,159	 -61,587	 -0,011	 -47,326	 51,000
0,199	 -61,530	 -0,008	 -47,284	 54,000
0,206	 -61,470	 0,001	 -47,231	 57,000
0,319	 -61,408	 0,004	 -47,188	 60,000
0,497	 -61,346	 0,005	 -47,139	 63,000
1,291	 -61,294	 0,006	 -47,098	 66,000
2,746	 -61,235	 0,010	 -47,047	 69,000
4,565	 -61,175	 0,016	 -47,003	 72,000
6,691	 -61,123	 0,020	 -46,956	 75,000
9,001	 -61,063	 0,031	 -46,909	 78,000
11,584	 -61,007	 0,043	 -46,865	 81,000
14,413	 -60,953	 0,057	 -46,815	 84,000
17,513	 -60,897	 0,074	 -46,773	 87,000
20,487	 -60,839	 0,089	 -46,730	 90,000
23,495	 -60,783	 0,103	 -46,688	 93,000
26,300	 -60,727	 0,114	 -46,633	 96,000
29,090	 -60,672	 0,134	 -46,589	 99,000
31,656	 -60,618	 0,157	 -46,543	 102,000
34,141	 -60,557	 0,183	 -46,491	 105,000
36,270	 -60,499	 0,206	 -46,447	 108,000
38,373	 -60,445	 0,235	 -46,399	 111,000
40,174	 -60,383	 0,267	 -46,356	 114,000
41,775	 -60,330	 0,301	 -46,311	 117,000
42,990	 -60,270	 0,336	 -46,267	 120,000
44,061	 -60,217	 0,375	 -46,222	 123,000
45,122	 -60,152	 0,415	 -46,172	 126,000
45,988	 -60,101	 0,459	 -46,129	 129,000
46,626	 -60,038	 0,507	 -46,085	 132,000
47,346	 -59,977	 0,555	 -46,039	 135,000
47,950	 -59,915	 0,604	 -45,989	 138,000
48,410	 -59,854	 0,653	 -45,945	 141,000
48,882	 -59,799	 0,695	 -45,892	 144,000
49,274	 -59,742	 0,738	 -45,853	 147,000
49,747	 -59,680	 0,795	 -45,803	 150,000
50,014	 -59,620	 0,848	 -45,754	 153,000
50,390	 -59,566	 0,895	 -45,712	 156,000
50,637	 -59,504	 0,938	 -45,667	 159,000
51,109	 -59,438	 0,989	 -45,621	 162,000
51,324	 -59,379	 1,044	 -45,574	 165,000
51,566	 -59,319	 1,107	 -45,530	 168,000
51,780	 -59,263	 1,166	 -45,479	 171,000
52,006	 -59,203	 1,211	 -45,435	 174,000
52,217	 -59,145	 1,262	 -45,390	 177,000
52,445	 -59,081	 1,315	 -45,343	 180,000
52,661	 -59,022	 1,366	 -45,294	 183,000
52,755	 -58,961	 1,426	 -45,249	 186,000
52,931	 -58,904	 1,480	 -45,204	 189,000
53,122	 -58,841	 1,530	 -45,159	 192,000
53,269	 -58,784	 1,594	 -45,113	 195,000
53,421	 -58,722	 1,653	 -45,069	 198,000
53,596	 -58,665	 1,703	 -45,020	 201,000
53,700	 -58,603	 1,757	 -44,969	 204,000
53,849	 -58,541	 1,811	 -44,931	 207,000
53,946	 -58,487	 1,862	 -44,881	 210,000
54,067	 -58,418	 1,910	 -44,836	 213,000
54,235	 -58,364	 1,955	 -44,790	 216,000
54,290	 -58,305	 2,007	 -44,747	 219,000
54,419	 -58,240	 2,069	 -44,697	 222,000
54,475	 -58,186	 2,134	 -44,652	 225,000
54,602	 -58,122	 2,202	 -44,612	 228,000
54,666	 -58,063	 2,262	 -44,559	 231,000
54,790	 -58,000	 2,318	 -44,511	 234,000
54,783	 -57,938	 2,382	 -44,465	 237,000
54,897	 -57,883	 2,438	 -44,418	 240,000
54,956	 -57,819	 2,496	 -44,376	 243,000
55,054	 -57,763	 3,483	 -44,329	 246,000
55,095	 -57,700	 4,362	 -44,285	 249,000
55,153	 -57,638	 4,422	 -44,239	 252,000
55,190	 -57,577	 3,962	 -44,191	 255,000
55,295	 -57,522	 1,534	 -44,146	 258,000
55,315	 -57,461	 1,643	 -44,096	 261,000
55,372	 -57,402	 1,645	 -44,054	 264,000
55,422	 -57,339	 1,644	 -44,006	 267,000
55,460	 -57,283	 1,645	 -43,958	 270,000
55,511	 -57,221	 1,636	 -43,913	 273,000
55,553	 -57,157	 1,635	 -43,868	 276,000
55,553	 -57,098	 1,635	 -43,820	 279,000
55,624	 -57,038	 1,635	 -43,774	 282,000
55,664	 -56,974	 1,635	 -43,731	 285,000
55,674	 -56,916	 1,635	 -43,688	 288,000
55,739	 -56,856	 1,635	 -43,640	 291,000
55,698	 -56,799	 1,635	 -43,594	 294,000
55,799	 -56,742	 1,635	 -43,545	 297,000
55,833	 -56,675	 1,635	 -43,505	 300,000
55,821	 -56,616	 1,635	 -43,454	 303,000
55,847	 -56,556	 1,636	 -43,410	 306,000
55,879	 -56,495	 1,635	 -43,363	 309,000
55,887	 -56,440	 1,635	 -43,314	 312,000
55,941	 -56,379	 1,635	 -43,262	 315,000
55,927	 -56,310	 1,635	 -43,224	 318,000
55,938	 -56,256	 1,635	 -43,175	 321,000
55,889	 -56,194	 1,636	 -43,135	 324,000
55,994	 -56,135	 1,635	 -43,084	 327,000
56,005	 -56,077	 1,635	 -43,034	 330,000
55,999	 -56,011	 1,636	 -42,989	 333,000
55,926	 -55,959	 1,635	 -42,945	 336,000
56,068	 -55,897	 1,635	 -42,904	 339,000
56,055	 -55,832	 1,635	 -42,855	 342,000
56,027	 -55,771	 1,635	 -42,809	 345,000
56,066	 -55,715	 1,635	 -42,766	 348,000
56,066	 -55,651	 1,635	 -42,719	 351,000
56,069	 -55,592	 1,636	 -42,667	 354,000
56,066	 -55,531	 1,635	 -42,628	 357,000
56,080	 -55,475	 1,636	 -42,568	 360,000
56,069	 -55,412	 1,636	 -42,534	 363,000
56,091	 -55,357	 1,636	 -42,484	 366,000
56,090	 -55,293	 1,635	 -42,443	 369,000
56,100	 -55,236	 1,635	 -42,388	 372,000
56,091	 -55,172	 1,635	 -42,345	 375,000
56,087	 -55,116	 1,635	 -42,301	 378,000
56,067	 -55,052	 1,635	 -42,255	 381,000
56,097	 -54,996	 1,635	 -42,212	 384,000
56,103	 -54,932	 1,635	 -42,167	 387,000
56,016	 -54,882	 1,636	 -42,119	 390,000
56,097	 -54,817	 1,635	 -42,069	 393,000
56,079	 -54,757	 1,635	 -42,025	 396,000
56,056	 -54,693	 1,635	 -41,981	 399,000
56,034	 -54,632	 1,635	 -41,928	 402,000
56,040	 -54,575	 1,635	 -41,889	 405,000
56,045	 -54,510	 1,635	 -41,839	 408,000
55,998	 -54,451	 1,635	 -41,799	 411,000
55,996	 -54,391	 1,635	 -41,747	 414,000
55,948	 -54,329	 1,636	 -41,704	 417,000
55,974	 -54,273	 1,635	 -41,657	 420,000
55,923	 -54,211	 1,635	 -41,607	 423,000
55,938	 -54,152	 1,635	 -41,564	 426,000
55,923	 -54,088	 1,636	 -41,518	 429,000
55,883	 -54,032	 1,636	 -41,470	 432,000
55,859	 -53,969	 1,635	 -41,429	 435,000
55,869	 -53,922	 1,635	 -41,379	 438,000
55,833	 -53,856	 1,635	 -41,333	 441,000
55,757	 -53,791	 1,635	 -41,282	 444,000
55,724	 -53,731	 1,635	 -41,240	 447,000
55,670	 -53,671	 1,635	 -41,193	 450,000
55,597	 -53,607	 1,636	 -41,146	 453,000
55,590	 -53,553	 1,636	 -41,102	 456,000
55,375	 -53,489	 1,636	 -41,056	 459,000
55,508	 -53,437	 1,636	 -41,011	 462,000
55,414	 -53,370	 1,635	 -40,964	 465,000
55,307	 -53,313	 1,635	 -40,921	 468,000
55,269	 -53,246	 1,635	 -40,872	 471,000
55,179	 -53,194	 1,635	 -40,829	 474,000
55,136	 -53,131	 1,635	 -40,781	 477,000
54,978	 -53,070	 1,635	 -40,736	 480,000
54,930	 -53,009	 1,636	 -40,688	 483,000
54,818	 -52,951	 1,635	 -40,641	 486,000
54,614	 -52,893	 1,636	 -40,590	 489,000
54,584	 -52,826	 1,635	 -40,544	 492,000
54,447	 -52,768	 1,635	 -40,502	 495,000
54,326	 -52,705	 1,635	 -40,457	 498,000
54,193	 -52,644	 1,635	 -40,409	 501,000
54,023	 -52,592	 1,635	 -40,363	 504,000
53,821	 -52,528	 1,635	 -40,322	 507,000
53,685	 -52,467	 1,636	 -40,270	 510,000
53,521	 -52,405	 1,635	 -40,235	 513,000
53,356	 -52,349	 1,636	 -40,178	 516,000
53,170	 -52,285	 1,635	 -40,135	 519,000
52,990	 -52,227	 1,636	 -40,087	 522,000
52,764	 -52,166	 1,635	 -40,042	 525,000
52,573	 -52,105	 1,636	 -39,995	 528,000
52,354	 -52,048	 1,635	 -39,950	 531,000
52,046	 -51,986	 1,635	 -39,902	 534,000
51,857	 -51,920	 1,636	 -39,853	 537,000
51,387	 -51,868	 1,635	 -39,811	 540,000
51,402	 -51,810	 1,635	 -39,766	 543,000
50,919	 -51,747	 1,635	 -39,722	 546,000
50,540	 -51,690	 1,635	 -39,674	 549,000
50,452	 -51,624	 1,635	 -39,624	 552,000
49,986	 -51,565	 1,635	 -39,577	 555,000
49,667	 -51,504	 1,636	 -39,533	 558,000
49,297	 -51,442	 1,635	 -39,485	 561,000
48,827	 -51,381	 1,635	 -39,440	 564,000
-0,003	 -51,267	 1,646	 -39,391	 567,000
-0,003	 -51,249	 1,646	 -39,380	 568,000