File: examples/data_example_1.txt
WORKSHOP 3 EXPORTED DATA: [C:\Documents and Settings\Administrator\Pulpit\POIG\1050_15.W01 - 1]
*************************************************************************************************
Source of data: ScriptPl
WS3 File Version: 1,05
Number of bytes in subfile: 167287
Total number of data points: 8339
Test date: 09-10-2011
Test time: 08:33:38
Player Step: 1
Step Capture No: 1
Actuator: 1
*************************************************************************************************
Actuator: 1  Channel:0	 Actuator: 1  Channel:1	 Actuator: 1  Channel:2	 Actuator: 1  Channel:3	 Actuator: 1  Channel:4
Load (kN)	 Stroke (mm)	 Extension (mm)	 Command (%)	 Time (s)
-0,024	 -58,313	 -0,015	 -44,799	 0,000
0,024	 -58,172	 -0,026	 -44,700	 8,500
0,065	 -58,040	 -0,043	 -44,591	 17,000
0,122	 -57,905	 -0,048	 -44,492	 25,500
0,155	 -57,769	 -0,049	 -44,383	 34,000
0,843	 -57,632	 -0,031	 -44,275	 42,500
1,071	 -57,502	 0,065	 -44,172	 51,000
1,172	 -57,368	 0,167	 -44,063	 59,500
1,231	 -57,234	 0,269	 -43,964	 68,000
1,284	 -57,106	 0,373	 -43,861	 76,500
1,322	 -56,963	 0,487	 -43,754	 85,000
1,354	 -56,825	 0,594	 -43,657	 93,500
1,378	 -56,690	 0,703	 -43,546	 102,000
1,408	 -56,551	 0,820	 -43,440	 110,500
1,433	 -56,416	 0,932	 -43,338	 119,000
1,455	 -56,274	 1,030	 -43,232	 127,500
1,476	 -56,136	 1,152	 -43,132	 136,000
1,503	 -56,000	 2,126	 -43,031	 144,500
1,525	 -55,865	 1,093	 -42,920	 153,000
1,537	 -55,728	 1,093	 -42,820	 161,500
1,551	 -55,587	 1,098	 -42,713	 170,000
1,570	 -55,453	 1,098	 -42,608	 178,500
1,586	 -55,316	 1,098	 -42,503	 187,000
1,605	 -55,185	 1,101	 -42,401	 195,500
1,609	 -55,044	 1,102	 -42,294	 204,000
1,625	 -54,914	 1,102	 -42,193	 212,500
1,634	 -54,774	 1,101	 -42,086	 221,000
1,650	 -54,636	 1,102	 -41,981	 229,500
1,666	 -54,502	 1,102	 -41,877	 238,000
1,671	 -54,362	 1,102	 -41,771	 246,500
1,686	 -54,222	 1,101	 -41,664	 255,000
1,694	 -54,086	 1,102	 -41,566	 263,500
1,710	 -53,954	 1,101	 -41,459	 272,000
1,711	 -53,819	 1,101	 -41,354	 280,500
1,718	 -53,686	 1,102	 -41,256	 289,000
1,733	 -53,545	 1,102	 -41,146	 297,500
1,731	 -53,408	 1,102	 -41,041	 306,000
1,752	 -53,277	 1,102	 -40,938	 314,500
1,733	 -53,137	 1,101	 -40,832	 323,000
1,762	 -53,004	 1,101	 -40,734	 331,500
1,753	 -52,867	 1,102	 -40,620	 340,000
1,748	 -52,728	 1,101	 -40,518	 348,500
1,733	 -52,600	 1,102	 -40,415	 357,000
1,710	 -52,461	 1,102	 -40,304	 365,500
1,674	 -52,320	 1,102	 -40,207	 374,000
1,632	 -52,185	 1,102	 -40,098	 382,500
1,587	 -52,050	 1,102	 -39,994	 391,000
1,557	 -51,918	 1,101	 -39,890	 399,500
1,539	 -51,778	 1,102	 -39,788	 408,000
1,540	 -51,643	 1,102	 -39,681	 416,500
1,537	 -51,505	 1,102	 -39,576	 425,000
1,553	 -51,370	 1,102	 -39,477	 433,500
1,560	 -51,229	 1,102	 -39,363	 442,000
1,575	 -51,097	 1,102	 -39,261	 450,500
1,577	 -50,962	 1,102	 -39,154	 459,000
1,586	 -50,825	 1,102	 -39,058	 467,500
1,604	 -50,687	 1,102	 -38,951	 476,000
1,610	 -50,556	 1,102	 -38,845	 484,500
1,610	 -50,421	 1,102	 -38,742	 493,000
1,620	 -50,284	 1,102	 -38,634	 501,500
1,621	 -50,150	 1,102	 -38,532	 510,000
1,621	 -50,008	 1,102	 -38,429	 518,500
1,625	 -49,870	 1,103	 -38,322	 527,000
1,610	 -49,741	 1,103	 -38,219	 535,500
1,604	 -49,603	 1,103	 -38,115	 544,000
1,598	 -49,465	 1,102	 -38,005	 552,500
1,582	 -49,330	 1,103	 -37,905	 561,000
1,564	 -49,192	 1,103	 -37,802	 569,500
1,537	 -49,054	 1,103	 -37,693	 578,000
1,518	 -48,920	 1,103	 -37,589	 586,500
1,497	 -48,787	 1,103	 -37,485	 595,000
1,474	 -48,642	 1,103	 -37,379	 603,500
1,450	 -48,510	 1,103	 -37,276	 612,000
1,433	 -48,374	 1,104	 -37,174	 620,500
1,433	 -48,244	 1,104	 -37,066	 629,000
1,419	 -48,111	 1,104	 -36,968	 637,500
1,423	 -47,977	 1,103	 -36,861	 646,000
1,415	 -47,838	 1,104	 -36,756	 654,500
1,423	 -47,703	 1,103	 -36,648	 663,000
1,416	 -47,569	 1,104	 -36,544	 671,500
1,426	 -47,432	 1,104	 -36,441	 680,000
1,428	 -47,290	 1,105	 -36,339	 688,500
1,425	 -47,158	 1,103	 -36,231	 697,000
1,420	 -47,020	 1,105	 -36,128	 705,500
1,417	 -46,886	 1,105	 -36,025	 714,000
1,416	 -46,751	 1,104	 -35,920	 722,500
1,416	 -46,612	 1,105	 -35,816	 731,000
1,413	 -46,477	 1,105	 -35,712	 739,500
1,400	 -46,339	 1,104	 -35,605	 748,000
1,389	 -46,203	 1,105	 -35,500	 756,500
1,381	 -46,070	 1,105	 -35,394	 765,000
1,369	 -45,934	 1,105	 -35,291	 773,500
1,365	 -45,789	 1,105	 -35,190	 782,000
1,360	 -45,664	 1,105	 -35,085	 790,500
1,350	 -45,522	 1,105	 -34,983	 799,000
1,336	 -45,387	 1,105	 -34,875	 807,500
1,330	 -45,246	 1,105	 -34,770	 816,000
1,326	 -45,113	 1,105	 -34,668	 824,500
1,325	 -44,979	 1,105	 -34,562	 833,000
1,319	 -44,842	 1,105	 -34,452	 841,500
1,306	 -44,705	 1,106	 -34,353	 850,000
1,297	 -44,571	 1,106	 -34,247	 858,500
1,295	 -44,438	 1,105	 -34,142	 867,000
1,288	 -44,301	 1,106	 -34,039	 875,500
1,279	 -44,159	 1,106	 -33,933	 884,000
1,277	 -44,026	 1,106	 -33,831	 892,500
1,270	 -43,894	 1,106	 -33,724	 901,000
1,266	 -43,752	 1,106	 -33,624	 909,500
1,262	 -43,616	 1,105	 -33,515	 918,000
1,259	 -43,482	 1,106	 -33,410	 926,500
1,249	 -43,348	 1,106	 -33,308	 935,000
1,241	 -43,211	 1,106	 -33,201	 943,500
1,231	 -43,071	 1,106	 -33,105	 952,000
1,230	 -42,937	 1,106	 -32,996	 960,500
1,222	 -42,801	 1,106	 -32,892	 969,000
1,220	 -42,670	 1,106	 -32,782	 977,500
1,214	 -42,531	 1,106	 -32,679	 986,000
1,202	 -42,396	 1,106	 -32,575	 994,500
1,197	 -42,260	 1,106	 -32,471	 1003,000
1,189	 -42,123	 1,107	 -32,366	 1011,500
1,183	 -41,984	 1,106	 -32,261	 1020,000
1,178	 -41,851	 1,106	 -32,153	 1028,500
1,176	 -41,716	 1,106	 -32,056	 1037,000
1,169	 -41,578	 1,107	 -31,950	 1045,500
1,163	 -41,442	 1,106	 -31,844	 1054,000
1,158	 -41,303	 1,107	 -31,740	 1062,500
1,148	 -41,171	 1,106	 -31,634	 1071,000
1,138	 -41,031	 1,106	 -31,529	 1079,500
1,131	 -40,891	 1,106	 -31,424	 1088,000
1,126	 -40,758	 1,107	 -31,320	 1096,500
1,118	 -40,623	 1,107	 -31,217	 1105,000
1,111	 -40,488	 1,107	 -31,113	 1113,500
1,100	 -40,353	 1,107	 -31,012	 1122,000
1,096	 -40,215	 1,107	 -30,907	 1130,500
1,093	 -40,081	 1,107	 -30,798	 1139,000
1,082	 -39,947	 1,107	 -30,693	 1147,500
1,079	 -39,806	 1,107	 -30,589	 1156,000
1,074	 -39,673	 1,106	 -30,488	 1164,500
1,068	 -39,533	 1,107	 -30,378	 1173,000
1,056	 -39,396	 1,107	 -30,278	 1181,500
1,051	 -39,262	 1,107	 -30,174	 1190,000
1,048	 -39,128	 1,107	 -30,069	 1198,500
1,038	 -38,992	 1,106	 -29,965	 1207,000
1,029	 -38,853	 1,107	 -29,854	 1215,500
1,024	 -38,721	 1,107	 -29,752	 1224,000
1,021	 -38,584	 1,107	 -29,651	 1232,500
1,012	 -38,445	 1,107	 -29,541	 1241,000
1,002	 -38,316	 1,107	 -29,439	 1249,500
0,999	 -38,171	 1,108	 -29,338	 1258,000
0,988	 -38,041	 1,107	 -29,232	 1266,500
0,984	 -37,902	 1,107	 -29,134	 1275,000
0,972	 -37,769	 1,107	 -29,022	 1283,500
0,961	 -37,631	 1,107	 -28,919	 1292,000
0,957	 -37,501	 1,107	 -28,811	 1300,500
0,951	 -37,358	 1,107	 -28,707	 1309,000
0,944	 -37,227	 1,107	 -28,604	 1317,500
0,932	 -37,089	 1,107	 -28,505	 1326,000
0,926	 -36,951	 1,107	 -28,393	 1334,500
0,914	 -36,819	 1,107	 -28,292	 1343,000
0,911	 -36,676	 1,107	 -28,187	 1351,500
0,898	 -36,544	 1,107	 -28,082	 1360,000
0,894	 -36,410	 1,107	 -27,981	 1368,500
0,886	 -36,270	 1,107	 -27,875	 1377,000
0,883	 -36,139	 1,107	 -27,767	 1385,500
0,874	 -36,000	 1,107	 -27,664	 1394,000
0,865	 -35,861	 1,107	 -27,563	 1402,500
0,856	 -35,726	 1,107	 -27,456	 1411,000
0,847	 -35,592	 1,107	 -27,352	 1419,500
0,840	 -35,460	 1,108	 -27,249	 1428,000
0,826	 -35,318	 1,107	 -27,145	 1436,500
0,821	 -35,182	 1,107	 -27,043	 1445,000
0,810	 -35,049	 1,107	 -26,931	 1453,500
0,805	 -34,911	 1,107	 -26,827	 1462,000
0,795	 -34,775	 1,108	 -26,728	 1470,500
0,786	 -34,639	 1,107	 -26,619	 1479,000
0,771	 -34,504	 1,108	 -26,517	 1487,500
0,762	 -34,368	 1,108	 -26,410	 1496,000
0,755	 -34,232	 1,107	 -26,310	 1504,500
0,749	 -34,093	 1,107	 -26,202	 1513,000
0,739	 -33,957	 1,107	 -26,097	 1521,500
0,728	 -33,826	 1,107	 -25,993	 1530,000
0,716	 -33,685	 1,107	 -25,891	 1538,500
0,709	 -33,549	 1,107	 -25,782	 1547,000
0,699	 -33,419	 1,107	 -25,679	 1555,500
0,692	 -33,276	 1,107	 -25,574	 1564,000
0,676	 -33,141	 1,107	 -25,473	 1572,500
0,664	 -33,007	 1,107	 -25,367	 1581,000
0,655	 -32,871	 1,107	 -25,267	 1589,500
0,646	 -32,736	 1,107	 -25,159	 1598,000
0,632	 -32,597	 1,107	 -25,053	 1606,500
0,623	 -32,463	 1,107	 -24,942	 1615,000
0,615	 -32,327	 1,107	 -24,842	 1623,500
0,605	 -32,188	 1,107	 -24,742	 1632,000
0,595	 -32,054	 1,107	 -24,636	 1640,500
0,584	 -31,919	 1,107	 -24,529	 1649,000
0,571	 -31,779	 1,107	 -24,429	 1657,500
0,557	 -31,645	 1,107	 -24,321	 1666,000
0,552	 -31,509	 1,107	 -24,216	 1674,500
0,538	 -31,374	 1,107	 -24,119	 1683,000
0,525	 -31,239	 1,108	 -24,008	 1691,500
0,510	 -31,101	 1,107	 -23,898	 1700,000
0,499	 -30,966	 1,108	 -23,796	 1708,500
0,486	 -30,830	 1,107	 -23,692	 1717,000
0,473	 -30,693	 1,108	 -23,593	 1725,500
0,463	 -30,559	 1,108	 -23,485	 1734,000
0,449	 -30,420	 1,107	 -23,383	 1742,500
0,439	 -30,282	 1,108	 -23,279	 1751,000
0,425	 -30,150	 1,107	 -23,171	 1759,500
0,422	 -30,010	 1,107	 -23,068	 1768,000
0,407	 -29,870	 1,107	 -22,961	 1776,500
0,394	 -29,741	 1,108	 -22,856	 1785,000
0,381	 -29,607	 1,108	 -22,756	 1793,500
0,365	 -29,469	 1,108	 -22,650	 1802,000
0,351	 -29,329	 1,108	 -22,543	 1810,500
0,337	 -29,196	 1,108	 -22,439	 1819,000
0,334	 -29,061	 1,108	 -22,334	 1827,500
0,318	 -28,922	 1,108	 -22,231	 1836,000
0,306	 -28,790	 1,108	 -22,128	 1844,500
0,295	 -28,649	 1,108	 -22,017	 1853,000
0,273	 -28,514	 1,108	 -21,914	 1861,500
0,264	 -28,378	 1,108	 -21,813	 1870,000
0,252	 -28,242	 1,108	 -21,708	 1878,500
0,240	 -28,106	 1,108	 -21,604	 1887,000
0,227	 -27,971	 1,108	 -21,502	 1895,500
0,214	 -27,840	 1,108	 -21,396	 1904,000
0,202	 -27,698	 1,108	 -21,292	 1912,500
0,195	 -27,565	 1,108	 -21,185	 1921,000
0,183	 -27,426	 1,108	 -21,082	 1929,500
0,170	 -27,291	 1,108	 -20,976	 1938,000
0,157	 -27,152	 1,108	 -20,869	 1946,500
0,146	 -27,015	 1,108	 -20,768	 1955,000
0,135	 -26,879	 1,108	 -20,665	 1963,500
0,127	 -26,747	 1,108	 -20,555	 1972,000
0,107	 -26,609	 1,108	 -20,454	 1980,500
0,098	 -26,473	 1,108	 -20,353	 1989,000
0,089	 -26,338	 1,108	 -20,246	 1997,500
0,071	 -26,197	 1,108	 -20,144	 2006,000
0,059	 -26,067	 1,108	 -20,037	 2014,500
0,054	 -25,925	 1,108	 -19,931	 2023,000
0,049	 -25,791	 1,109	 -19,830	 2031,500
0,045	 -25,653	 1,108	 -19,720	 2040,000
0,038	 -25,519	 1,108	 -19,615	 2048,500
0,032	 -25,384	 1,108	 -19,518	 2057,000
0,030	 -25,246	 1,108	 -19,405	 2065,500
0,026	 -25,114	 1,109	 -19,306	 2074,000
0,021	 -24,979	 1,108	 -19,203	 2082,500
0,024	 -24,943	 1,108	 -19,178	 2084,500